,GP550R
RamanShit,Intensity,
397.15,1353.16,
400.16,1457.65,
403.18,1545.43,
406.19,1542.91,
409.20,1505.23,
412.21,1521.79,
415.21,1615.92,
418.21,1704.34,
421.22,1698.76,
424.22,1622.08,
427.22,1600.35,
430.21,1635.19,
433.21,1600.96,
436.20,1517.22,
439.19,1526.04,
442.18,1622.65,
445.17,1646.96,
448.16,1591.11,
451.14,1563.68,
454.13,1579.71,
457.11,1580.19,
460.09,1538.35,
463.07,1477.15,
466.04,1465.83,
469.02,1541.07,
471.99,1650.53,
474.96,1689.10,
477.93,1657.07,
480.90,1624.42,
483.87,1599.12,
486.83,1556.87,
489.80,1522.24,
492.76,1520.25,
495.72,1547.50,
498.67,1563.79,
501.63,1553.42,
504.58,1526.52,
507.54,1474.10,
510.49,1412.06,
513.44,1373.03,
516.39,1366.40,
519.33,1364.27,
522.28,1319.48,
525.22,1247.95,
528.16,1186.38,
531.10,1141.48,
534.04,1115.59,
536.97,1114.96,
539.91,1113.59,
542.84,1101.68,
545.77,1089.59,
548.70,1086.81,
551.63,1058.58,
554.56,1009.60,
557.48,993.97,
560.40,1014.96,
563.32,1000.60,
566.24,957.51,
569.16,952.72,
572.08,1012.20,
574.99,1054.64,
577.91,1047.24,
580.82,1025.63,
583.72,1044.38,
586.63,1105.41,
589.54,1176.15,
592.44,1220.06,
595.35,1206.63,
598.25,1160.31,
601.15,1162.99,
604.04,1210.87,
606.94,1250.04,
609.83,1251.77,
612.73,1258.47,
615.62,1285.76,
618.51,1286.17,
621.40,1252.33,
624.28,1233.42,
627.17,1250.30,
630.05,1263.80,
632.93,1236.51,
635.81,1197.31,
638.69,1178.43,
641.57,1172.27,
644.44,1159.67,
647.31,1147.34,
650.19,1140.92,
653.06,1137.27,
655.92,1125.40,
658.79,1081.25,
661.66,1017.97,
664.52,968.70,
667.38,944.33,
670.24,935.59,
673.10,939.19,
675.96,939.99,
678.81,916.50,
681.66,937.67,
684.52,1106.45,
687.37,1387.13,
690.21,1692.90,
693.06,2015.52,
695.91,2398.10,
698.75,2786.76,
701.59,3088.07,
704.43,3287.35,
707.27,3373.15,
710.11,3310.94,
712.95,3106.28,
715.78,2811.94,
718.61,2494.59,
721.44,2190.10,
724.27,1935.73,
727.10,1732.47,
729.93,1536.08,
732.75,1332.58,
735.57,1157.44,
738.39,1068.10,
741.21,1049.57,
744.03,1025.33,
746.85,966.93,
749.66,931.61,
752.48,952.66,
755.29,955.99,
758.10,897.36,
760.91,838.53,
763.71,815.92,
766.52,805.16,
769.32,772.11,
772.12,729.47,
774.92,674.17,
777.72,591.92,
780.52,538.68,
783.32,573.18,
786.11,655.08,
788.90,668.12,
791.69,571.58,
794.48,494.09,
797.27,509.43,
800.06,516.55,
802.84,452.61,
805.62,396.31,
808.41,420.20,
811.18,468.38,
813.96,481.86,
816.74,483.87,
819.51,481.70,
822.29,469.28,
825.06,460.25,
827.83,448.34,
830.60,447.30,
833.37,462.48,
836.13,477.40,
838.89,470.04,
841.66,461.81,
844.42,485.30,
847.18,494.64,
849.94,475.93,
852.69,472.84,
855.45,466.78,
858.20,422.17,
860.95,366.72,
863.70,369.29,
866.45,400.73,
869.20,379.40,
871.94,339.33,
874.68,335.40,
877.43,338.31,
880.17,305.18,
882.91,266.50,
885.64,284.89,
888.38,323.17,
891.11,297.68,
893.85,214.66,
896.58,137.67,
899.31,109.67,
902.04,115.58,
904.76,117.84,
907.49,109.61,
910.21,95.02,
912.93,75.37,
915.65,66.60,
918.37,81.66,
921.09,119.87,
923.80,141.75,
926.52,109.66,
929.23,43.15,
931.94,1.15,
934.65,24.67,
937.36,103.47,
940.07,176.45,
942.77,200.39,
945.47,187.42,
948.18,163.23,
950.88,163.69,
953.58,194.39,
956.27,228.02,
958.97,237.43,
961.66,231.53,
964.36,245.42,
967.05,279.51,
969.74,275.77,
972.42,245.86,
975.11,242.30,
977.80,301.90,
980.48,365.55,
983.16,349.35,
985.84,273.50,
988.52,242.55,
991.20,281.82,
993.87,338.46,
996.55,328.25,
999.22,274.78,
1001.89,258.32,
1004.56,299.75,
1007.23,339.13,
1009.90,332.49,
1012.56,310.17,
1015.23,327.50,
1017.89,359.88,
1020.55,394.02,
1023.21,429.69,
1025.87,440.47,
1028.52,407.85,
1031.18,388.28,
1033.83,424.26,
1036.48,483.54,
1039.13,515.18,
1041.78,530.34,
1044.43,547.58,
1047.07,576.17,
1049.72,679.38,
1052.36,957.77,
1055.00,1486.75,
1057.64,2372.44,
1060.28,3666.45,
1062.92,5276.67,
1065.55,6967.17,
1068.19,8548.42,
1070.82,9984.71,
1073.45,11250.62,
1076.08,12225.81,
1078.71,12742.90,
1081.33,12742.57,
1083.96,12342.99,
1086.58,11646.56,
1089.20,10727.70,
1091.82,9648.20,
1094.44,8466.85,
1097.06,7236.82,
1099.67,5997.03,
1102.29,4835.07,
1104.90,3822.48,
1107.51,2970.64,
1110.12,2292.19,
1112.73,1759.44,
1115.34,1349.58,
1117.95,1050.25,
1120.55,837.61,
1123.15,696.80,
1125.75,591.28,
1128.35,520.12,
1130.95,505.97,
1133.55,523.39,
1136.14,531.50,
1138.74,534.39,
1141.33,558.30,
1143.92,581.38,
1146.51,549.35,
1149.10,505.36,
1151.68,495.39,
1154.27,486.27,
1156.85,448.56,
1159.43,418.46,
1162.02,407.03,
1164.59,397.80,
1167.17,407.26,
1169.75,447.01,
1172.32,451.63,
1174.89,415.14,
1177.47,411.33,
1180.04,461.32,
1182.61,468.87,
1185.17,399.92,
1187.74,336.07,
1190.31,347.81,
1192.87,391.65,
1195.43,414.32,
1197.99,413.29,
1200.55,419.05,
1203.11,426.55,
1205.66,431.84,
1208.22,454.33,
1210.77,504.74,
1213.32,524.03,
1215.87,501.01,
1218.42,479.77,
1220.97,480.31,
1223.51,473.45,
1226.06,460.10,
1228.60,478.06,
1231.14,532.06,
1233.68,570.72,
1236.22,581.66,
1238.76,567.60,
1241.29,551.70,
1243.83,573.93,
1246.36,614.90,
1248.89,600.30,
1251.42,545.30,
1253.95,546.09,
1256.48,632.46,
1259.00,702.90,
1261.53,705.15,
1264.05,705.24,
1266.57,726.50,
1269.09,737.28,
1271.61,741.52,
1274.13,756.84,
1276.65,785.14,
1279.16,803.52,
1281.67,804.86,
1284.18,794.21,
1286.69,775.21,
1289.20,771.58,
1291.71,785.59,
1294.22,804.53,
1296.72,827.32,
1299.22,839.01,
1301.73,832.69,
1304.23,827.36,
1306.72,838.08,
1309.22,824.61,
1311.72,774.12,
1314.21,740.57,
1316.71,766.38,
1319.20,815.36,
1321.69,830.45,
1324.18,802.14,
1326.67,781.56,
1329.15,804.98,
1331.64,857.49,
1334.12,841.96,
1336.60,750.92,
1339.08,684.71,
1341.56,696.83,
1344.04,734.99,
1346.52,745.64,
1348.99,728.49,
1351.46,699.55,
1353.94,681.30,
1356.41,723.18,
1358.88,781.36,
1361.35,769.65,
1363.81,689.58,
1366.28,643.72,
1368.74,686.18,
1371.20,742.10,
1373.67,741.38,
1376.12,716.85,
1378.58,737.38,
1381.04,792.75,
1383.50,793.60,
1385.95,744.98,
1388.40,734.79,
1390.85,789.97,
1393.30,839.21,
1395.75,842.84,
1398.20,826.53,
1400.65,804.91,
1403.09,793.69,
1405.53,849.45,
1407.98,951.98,
1410.42,1006.67,
1412.86,991.26,
1415.29,994.48,
1417.73,1047.33,
1420.17,1093.50,
1422.60,1099.30,
1425.03,1078.25,
1427.46,1050.51,
1429.89,1054.46,
1432.32,1109.97,
1434.75,1149.01,
1437.17,1116.11,
1439.59,1063.41,
1442.02,1063.22,
1444.44,1100.72,
1446.86,1125.02,
1449.28,1102.04,
1451.70,1037.17,
1454.11,964.13,
1456.53,940.11,
1458.94,952.17,
1461.35,937.03,
1463.76,909.87,
1466.17,927.59,
1468.58,965.94,
1470.99,971.14,
1473.39,947.25,
1475.79,959.85,
1478.20,1008.33,
1480.60,1021.54,
1483.00,963.63,
1485.40,875.81,
1487.79,854.73,
1490.19,928.36,
1492.58,1006.57,
1494.97,1009.29,
1497.37,946.44,
1499.76,901.47,
1502.15,902.48,
1504.53,932.31,
1506.92,978.01,
1509.31,1005.05,
1511.69,990.65,
1514.07,976.89,
1516.45,1000.53,
1518.83,1032.52,
1521.21,1005.41,
1523.59,965.90,
1525.96,981.98,
1528.34,1032.46,
1530.71,1063.51,
1533.08,1062.48,
1535.45,1052.51,
1537.82,1062.82,
1540.19,1073.20,
1542.55,1062.33,
1544.92,1031.75,
1547.28,1028.39,
1549.65,1056.00,
1552.01,1065.00,
1554.37,1051.66,
1556.73,1047.09,
1559.08,1056.91,
1561.44,1070.98,
1563.79,1078.82,
1566.15,1053.87,
1568.50,990.76,
1570.85,964.16,
1573.20,1025.37,
1575.54,1114.57,
1577.89,1153.60,
1580.24,1143.20,
1582.58,1128.06,
1584.92,1106.46,
1587.26,1101.31,
1589.60,1130.54,
1591.94,1164.92,
1594.28,1161.89,
1596.62,1124.70,
1598.95,1106.39,
1601.29,1121.91,
1603.62,1137.89,
1605.95,1139.43,
1608.28,1121.16,
1610.61,1113.17,
1612.93,1110.42,
1615.26,1084.22,
1617.58,1055.15,
1619.91,1051.71,
1622.23,1061.13,
1624.55,1054.09,
1626.87,1051.33,
1629.18,1083.22,
1631.50,1104.76,
1633.82,1090.31,
1636.13,1092.88,
1638.44,1108.80,
1640.75,1086.09,
1643.07,1031.83,
1645.37,1014.33,
1647.68,1032.71,
1649.99,1033.63,
1652.29,1025.94,
1654.60,1044.86,
1656.90,1043.90,
1659.20,989.17,
1661.50,945.14,
1663.80,991.01,
1666.09,1076.34,
1668.39,1108.93,
1670.69,1068.10,
1672.98,1010.79,
1675.27,995.33,
1677.56,1020.05,
1679.85,1039.54,
1682.14,1036.22,
1684.43,1037.96,
1686.71,1065.07,
1689.00,1064.42,
1691.28,1014.62,
1693.56,975.05,
1695.84,988.77,
1698.12,1021.41,
1700.40,1035.47,
1702.68,1013.09,
1704.95,970.91,
1707.23,947.42,
1709.50,967.51,
1711.77,1008.91,
1714.04,1028.28,
1716.31,1016.46,
1718.58,1007.12,
1720.85,1018.85,
1723.11,1069.24,
1725.38,1122.59,
1727.64,1125.62,
1729.90,1093.23,
1732.16,1085.88,
1734.42,1126.58,
1736.68,1181.24,
1738.94,1212.46,
1741.19,1214.47,
1743.45,1185.57,
1745.70,1153.21,
1747.95,1136.12,
1750.20,1125.87,
1752.45,1121.52,
1754.70,1111.04,
1756.95,1070.96,
1759.19,1011.03,
1761.43,968.83,
1763.68,979.92,
1765.92,1020.56,
1768.16,1029.46,
1770.40,999.32,
1772.64,962.94,
1774.88,969.56,
1777.11,981.73,
1779.34,923.10,
1781.58,837.28,
1783.81,819.23,
1786.04,854.02,
1788.27,867.26,
1790.50,840.55,
1792.72,827.78,
1794.95,828.10,
1797.17,813.35,
1799.40,793.33,
1801.62,774.31,
1803.84,749.51,
1806.06,732.67,
1808.28,723.87,
1810.50,691.08,
1812.71,648.97,
1814.92,652.82,
1817.14,696.86,
1819.35,703.12,
1821.56,665.24,
1823.77,648.72,
1825.98,673.63,
1828.19,668.23,
1830.39,608.25,
1832.60,553.89,
1834.80,573.72,
1837.00,649.93,
1839.20,691.19,
1841.40,657.17,
1843.60,623.40,
1845.80,634.70,
1848.00,658.95,
1850.19,652.88,
1852.38,634.97,
1854.58,626.18,
1856.77,615.72,
1858.96,605.68,
1861.15,604.89,
1863.33,609.64,
1865.52,627.39,
1867.71,637.58,
1869.89,621.65,
1872.07,592.96,
1874.26,594.54,
1876.44,617.16,
1878.62,621.08,
1880.79,595.65,
1882.97,563.10,
1885.15,547.36,
1887.32,564.32,
1889.49,593.61,
1891.67,608.40,
1893.84,614.14,
1896.01,620.92,
1898.17,597.34,
1900.34,553.90,
1902.51,529.98,
1904.67,530.66,
1906.84,525.71,
1909.00,495.70,
1911.16,469.59,
1913.32,463.06,
1915.48,478.80,
1917.64,485.93,
1919.79,437.79,
1921.95,380.90,
1924.10,391.36,
1926.26,455.05,
1928.41,491.93,
1930.56,465.31,
1932.71,429.68,
1934.86,413.13,
1937.00,429.13,
1939.15,465.25,
1941.29,478.82,
1943.44,446.18,
1945.58,389.32,
1947.72,364.69,
1949.86,386.40,
1952.00,410.19,
1954.14,423.30,
1956.27,412.15,
1958.41,388.05,
1960.54,372.00,
1962.68,366.82,
1964.81,347.34,
1966.94,314.24,
1969.07,318.92,
1971.20,369.62,
1973.32,376.27,
1975.45,321.04,
1977.57,303.95,
1979.70,365.71,
1981.82,418.10,
1983.94,408.61,
1986.06,383.17,
1988.18,380.44,
1990.30,370.86,
1992.41,334.34,
1994.53,298.03,
1996.64,283.61,
1998.76,287.59,
2000.87,297.98,
2002.98,319.06,
2005.09,357.84,
2007.20,376.47,
2009.31,330.82,
2011.41,251.79,
2013.52,227.53,
2015.62,282.96,
2017.72,342.94,
2019.82,349.05,
2021.92,337.41,
2024.02,349.03,
2026.12,359.59,
2028.22,335.98,
2030.31,316.76,
2032.41,328.20,
2034.50,341.58,
2036.59,332.10,
2038.69,327.35,
2040.77,339.81,
2042.86,350.63,
2044.95,345.91,
2047.04,332.71,
2049.12,316.37,
2051.21,322.77,
2053.29,355.35,
2055.37,395.73,
2057.45,404.79,
2059.53,388.99,
2061.61,372.29,
2063.69,357.12,
2065.77,342.03,
2067.84,340.95,
2069.92,327.64,
2071.99,288.48,
2074.06,238.62,
2076.13,235.53,
2078.20,286.14,
2080.27,333.53,
2082.33,329.07,
2084.40,292.61,
2086.47,262.04,
2088.53,259.86,
2090.59,251.78,
2092.65,236.56,
2094.72,240.94,
2096.77,258.16,
2098.83,253.92,
2100.89,244.17,
2102.95,258.90,
2105.00,299.41,
2107.05,318.27,
2109.11,288.43,
2111.16,232.39,
2113.21,195.84,
2115.26,210.10,
2117.31,249.02,
2119.35,249.38,
2121.40,222.33,
2123.44,211.12,
2125.49,231.62,
2127.53,261.69,
2129.57,277.35,
2131.61,278.90,
2133.65,263.43,
2135.69,241.72,
2137.73,239.90,
2139.76,247.02,
2141.80,237.33,
2143.83,212.03,
2145.86,214.05,
2147.89,252.23,
2149.92,285.79,
2151.95,285.33,
2153.98,262.69,
2156.01,243.31,
2158.03,243.83,
2160.06,254.88,
2162.08,263.65,
2164.11,251.19,
2166.13,239.50,
2168.15,250.09,
2170.17,270.73,
2172.19,282.93,
2174.20,305.91,
2176.22,329.74,
2178.23,324.99,
2180.25,294.49,
2182.26,278.97,
2184.27,286.98,
2186.28,275.73,
2188.29,243.76,
2190.30,233.20,
2192.31,234.64,
2194.31,234.63,
2196.32,238.77,
2198.32,250.70,
2200.33,269.87,
2202.33,256.92,
2204.33,223.81,
2206.33,221.74,
2208.33,270.49,
2210.32,315.34,
2212.32,292.84,
2214.31,240.11,
2216.31,222.15,
2218.30,225.10,
2220.29,238.68,
2222.28,274.51,
2224.28,300.73,
2226.26,264.67,
2228.25,211.64,
2230.24,216.37,
2232.22,234.68,
2234.21,215.96,
2236.19,209.16,
2238.17,252.84,
2240.16,261.18,
2242.14,180.23,
2244.12,123.51,
2246.09,177.04,
2248.07,248.84,
2250.05,243.79,
2252.02,209.72,
2253.99,226.68,
2255.97,249.21,
2257.94,217.40,
2259.91,181.73,
2261.88,207.24,
2263.85,259.22,
2265.81,257.73,
2267.78,220.50,
2269.75,216.15,
2271.71,252.80,
2273.67,279.66,
2275.64,275.59,
2277.60,270.47,
2279.56,269.91,
2281.52,251.21,
2283.47,233.03,
2285.43,232.32,
2287.39,244.96,
2289.34,251.99,
2291.29,253.45,
2293.25,259.41,
2295.20,265.97,
2297.15,269.74,
2299.10,275.68,
2301.05,280.78,
2302.99,286.00,
2304.94,291.22,
2306.88,296.40,
2308.83,301.57,
2310.77,306.72,
2312.71,311.84,
2314.66,316.95,
2316.60,322.03,
2318.53,327.10,
2320.47,332.15,
2322.41,337.17,
2324.34,342.18,
2326.28,347.16,
2328.21,352.13,
2330.15,357.07,
2332.08,362.00,
2334.01,366.90,
2335.94,371.79,
2337.87,376.65,
2339.79,381.50,
2341.72,386.32,
2343.65,391.13,
2345.57,395.91,
2347.49,400.68,
2349.42,405.43,
2351.34,410.04,
2353.26,415.17,
2355.18,418.98,
2357.09,424.23,
2359.01,428.69,
2360.93,432.13,
2362.84,435.99,
2364.76,442.93,
2366.67,451.32,
2368.58,438.57,
2370.49,396.98,
2372.40,358.53,
2374.31,344.09,
2376.22,341.06,
2378.13,330.18,
2380.03,333.09,
2381.94,356.99,
2383.84,349.75,
2385.74,301.98,
2387.64,272.02,
2389.55,289.19,
2391.45,300.26,
2393.34,269.28,
2395.24,232.70,
2397.14,235.14,
2399.03,265.26,
2400.93,301.43,
2402.82,310.04,
2404.71,286.41,
2406.61,267.47,
2408.50,281.30,
2410.39,301.63,
2412.27,294.13,
2414.16,264.54,
2416.05,251.95,
2417.93,252.07,
2419.82,268.09,
2421.70,281.81,
2423.58,266.27,
2425.47,232.69,
2427.35,219.14,
2429.23,250.59,
2431.10,283.63,
2432.98,268.15,
2434.86,241.73,
2436.74,255.10,
2438.61,295.22,
2440.48,296.11,
2442.35,257.34,
2444.23,250.05,
2446.10,279.94,
2447.97,290.34,
2449.83,268.23,
2451.70,250.00,
2453.57,246.04,
2455.43,236.10,
2457.30,234.48,
2459.16,266.07,
2461.02,302.89,
2462.89,311.16,
2464.75,291.46,
2466.61,271.88,
2468.46,277.54,
2470.32,281.67,
2472.18,257.46,
2474.03,229.06,
2475.89,231.83,
2477.74,270.93,
2479.59,303.03,
2481.45,315.48,
2483.30,310.80,
2485.15,273.16,
2487.00,229.25,
2488.84,216.10,
2490.69,229.73,
2492.54,253.42,
2494.38,267.78,
2496.22,273.30,
2498.07,264.10,
2499.91,259.00,
2501.75,289.28,
2503.59,331.94,
2505.43,318.69,
2507.27,239.59,
2509.10,171.34,
2510.94,195.57,
2512.77,261.51,
2514.61,280.21,
2516.44,251.85,
2518.27,244.65,
2520.10,274.10,
2521.93,304.01,
2523.76,307.61,
2525.59,303.68,
2527.42,299.97,
2529.24,296.09,
2531.07,288.27,
2532.89,294.22,
2534.72,322.44,
2536.54,347.38,
2538.36,330.68,
2540.18,288.58,
2542.00,271.53,
2543.82,293.88,
2545.64,318.00,
2547.45,313.79,
2549.27,306.71,
2551.08,323.13,
2552.90,340.56,
2554.71,337.21,
2556.52,322.88,
2558.33,320.67,
2560.14,325.11,
2561.95,307.43,
2563.76,278.48,
2565.57,285.46,
2567.37,332.27,
2569.18,356.77,
2570.98,329.00,
2572.79,304.95,
2574.59,320.01,
2576.39,339.89,
2578.19,343.06,
2579.99,354.89,
2581.79,366.76,
2583.58,357.78,
2585.38,341.40,
2587.18,339.89,
2588.97,343.86,
2590.76,335.30,
2592.56,322.52,
2594.35,315.46,
2596.14,308.00,
2597.93,309.83,
2599.72,323.39,
2601.51,347.14,
2603.29,375.61,
2605.08,382.45,
2606.86,355.47,
2608.65,323.29,
2610.43,331.97,
2612.21,379.09,
2614.00,396.38,
2615.78,366.72,
2617.56,327.22,
2619.33,315.50,
2621.11,344.15,
2622.89,377.46,
2624.67,382.70,
2626.44,362.80,
2628.21,347.33,
2629.99,358.28,
2631.76,363.36,
2633.53,357.24,
2635.30,355.69,
2637.07,365.45,
2638.84,377.38,
2640.61,370.30,
2642.37,355.33,
2644.14,350.02,
2645.90,351.97,
2647.67,360.76,
2649.43,380.45,
2651.19,405.60,
2652.95,400.42,
2654.71,365.13,
2656.47,340.40,
2658.23,341.46,
2659.99,341.06,
2661.74,333.98,
2663.50,340.01,
2665.25,354.23,
2667.01,362.22,
2668.76,370.10,
2670.51,377.09,
2672.26,383.91,
2674.01,389.84,
2675.76,401.75,
2677.51,408.85,
2679.26,402.98,
2681.00,391.08,
2682.75,382.84,
2684.49,383.26,
2686.24,400.13,
2687.98,422.11,
2689.72,426.35,
2691.46,412.83,
2693.20,394.66,
2694.94,370.77,
2696.68,346.02,
2698.42,344.85,
2700.15,374.42,
2701.89,396.99,
2703.62,382.80,
2705.35,364.24,
2707.09,376.43,
2708.82,409.85,
2710.55,426.74,
2712.28,409.48,
2714.01,382.39,
2715.74,363.91,
2717.46,349.57,
2719.19,345.13,
2720.92,367.48,
2722.64,404.20,
2724.36,417.59,
2726.09,404.13,
2727.81,396.11,
2729.53,399.87,
2731.25,401.75,
2732.97,395.78,
2734.69,386.22,
2736.41,378.98,
2738.12,383.87,
2739.84,409.05,
2741.55,438.81,
2743.26,437.61,
2744.98,392.95,
2746.69,351.00,
2748.40,356.20,
2750.11,387.97,
2751.82,401.91,
2753.53,408.12,
2755.24,426.48,
2756.94,438.87,
2758.65,431.14,
2760.36,422.27,
2762.06,412.49,
2763.76,402.46,
2765.46,406.02,
2767.17,423.86,
2768.87,426.06,
2770.57,415.55,
2772.27,428.52,
2773.96,463.60,
2775.66,481.84,
2777.36,463.62,
2779.05,426.35,
2780.75,409.05,
2782.44,424.07,
2784.13,441.04,
2785.82,430.58,
2787.51,422.66,
2789.21,460.42,
2790.89,508.85,
2792.58,511.17,
2794.27,462.09,
2795.96,408.70,
2797.64,389.46,
2799.33,407.43,
2801.01,442.84,
2802.69,460.45,
2804.38,463.38,
2806.06,475.35,
2807.74,484.01,
2809.42,477.05,
2811.10,467.04,
2812.77,461.00,
2814.45,443.09,
2816.13,407.46,
2817.80,401.04,
2819.48,428.81,
2821.15,453.40,
2822.82,450.84,
2824.50,444.13,
2826.17,450.26,
2827.83,457.56,
2829.50,455.07,
2831.17,458.20,
2832.84,457.88,
2834.51,448.58,
2836.17,439.96,
2837.84,431.83,
2839.50,414.02,
2841.17,422.57,
2842.83,488.66,
2844.49,558.09,
2846.15,552.85,
2847.81,516.69,
2849.47,522.72,
2851.13,548.33,
2852.78,549.02,
2854.44,528.53,
2856.10,515.73,
2857.75,508.23,
2859.40,496.46,
2861.06,494.85,
2862.71,507.50,
2864.36,529.00,
2866.01,537.78,
2867.66,508.78,
2869.31,478.66,
2870.96,481.40,
2872.61,509.79,
2874.25,530.19,
2875.90,530.09,
2877.54,520.47,
2879.19,500.10,
2880.83,469.09,
2882.47,453.58,
2884.11,469.10,
2885.75,508.79,
2887.39,541.07,
2889.03,556.82,
2890.67,561.58,
2892.31,541.17,
2893.94,498.40,
2895.58,468.15,
2897.21,488.62,
2898.85,543.73,
2900.48,579.00,
2902.11,568.38,
2903.74,540.39,
2905.37,524.56,
2907.00,529.52,
2908.63,533.97,
2910.26,538.62,
2911.89,532.06,
2913.51,513.79,
2915.14,501.75,
2916.76,521.85,
2918.39,540.12,
2920.01,525.97,
2921.63,495.09,
2923.25,486.84,
2924.87,496.39,
2926.49,513.72,
2928.11,531.64,
2929.73,555.12,
2931.35,560.33,
2932.96,544.08,
2934.58,533.00,
2936.19,543.01,
2937.81,560.43,
2939.42,566.00,
2941.03,564.33,
2942.64,566.98,
2944.25,558.34,
2945.87,534.05,
2947.47,526.71,
2949.08,543.83,
2950.69,557.72,
2952.29,546.42,
2953.90,527.40,
2955.51,515.46,
2957.11,523.54,
2958.71,546.56,
2960.32,573.70,
2961.92,578.21,
2963.52,564.01,
2965.12,566.23,
2966.72,593.89,
2968.32,610.99,
2969.92,604.62,
2971.51,575.70,
2973.11,570.38,
2974.70,605.87,
2976.30,642.00,
2977.89,636.73,
2979.48,595.56,
2981.08,583.41,
2982.67,616.36,
2984.26,627.63,
2985.85,609.34,
2987.44,603.14,
2989.02,621.64,
2990.61,638.54,
2992.20,631.59,
2993.78,626.55,
2995.37,613.69,
2996.95,589.08,
2998.53,580.09,
3000.12,601.02,
3001.70,627.78,
3003.28,637.25,
3004.86,631.61,
3006.44,632.71,
3008.02,628.65,
3009.59,618.18,
3011.17,607.42,
3012.75,617.29,
3014.32,637.56,
3015.90,643.57,
3017.47,639.78,
3019.04,632.68,
3020.62,616.28,
3022.19,607.74,
3023.76,618.16,
3025.33,642.69,
3026.90,645.72,
3028.46,630.06,
3030.03,635.84,
3031.60,657.35,
3033.16,667.61,
3034.73,658.01,
3036.29,640.59,
3037.86,638.11,
3039.42,642.61,
3040.98,658.48,
3042.54,677.16,
3044.10,671.29,
3045.66,649.21,
3047.22,640.04,
3048.78,656.64,
3050.34,675.38,
3051.89,671.00,
3053.45,658.99,
3055.01,660.42,
3056.56,670.03,
3058.11,668.89,
3059.67,651.65,
3061.22,645.49,
3062.77,663.87,
3064.32,691.60,
3065.87,701.64,
3067.42,697.42,
3068.96,689.05,
3070.51,697.87,
3072.06,719.33,
3073.60,729.35,
3075.15,714.08,
3076.69,704.17,
3078.24,705.48,
3079.78,699.39,
3081.32,679.31,
3082.86,679.80,
3084.40,695.32,
3085.94,695.70,
3087.48,678.05,
3089.02,680.36,
3090.56,689.26,
3092.09,685.28,
3093.63,671.82,
3095.16,678.14,
3096.70,700.99,
3098.23,707.66,
3099.76,688.91,
3101.29,679.00,
3102.83,684.30,
3104.36,692.86,
3105.89,683.53,
3107.42,672.55,
3108.94,678.24,
3110.47,690.08,
3112.00,692.06,
3113.52,681.79,
3115.05,685.69,
3116.57,714.15,
3118.10,738.38,
3119.62,744.07,
3121.14,745.94,
3122.66,752.91,
3124.18,755.16,
3125.70,752.04,
3127.22,764.40,
3128.74,774.22,
3130.26,765.01,
3131.78,751.95,
3133.29,743.35,
3134.81,734.71,
3136.32,726.42,
3137.84,741.46,
3139.35,773.01,
3140.86,781.28,
3142.37,773.48,
3143.88,781.49,
3145.39,797.30,
3146.90,801.89,
3148.41,783.70,
3149.92,774.88,
3151.43,787.61,
3152.93,813.64,
3154.44,829.71,
3155.94,817.44,
3157.45,801.22,
3158.95,805.75,
3160.46,807.93,
3161.96,810.43,
3163.46,832.21,
3164.96,870.34,
3166.46,880.59,
3167.96,855.66,
3169.46,841.72,
3170.95,845.17,
3172.45,847.90,
3173.95,855.10,
3175.44,867.27,
3176.94,877.49,
3178.43,869.24,
3179.92,864.09,
3181.41,882.67,
3182.91,904.19,
3184.40,911.38,
3185.89,901.62,
3187.38,895.40,
3188.87,901.53,
3190.36,897.25,
3191.84,899.35,
3193.33,921.43,
3194.82,951.96,
3196.30,951.62,
3197.78,916.28,
3199.27,901.70,
3200.75,924.05,
