,GP550R
RamanShit,Intensity
264.871,59.0551
267.926,59.0551
270.981,59.0551
274.035,59.0551
277.09,59.0551
280.145,59.0551
283.199,59.0551
286.254,59.0551
289.309,59.0551
292.363,59.0551
295.418,59.0551
298.473,59.0551
301.527,59.0551
304.582,334.646
307.637,334.646
310.691,334.646
313.746,334.646
316.801,334.646
319.855,334.646
322.91,334.646
325.965,334.646
329.019,334.646
332.074,334.646
335.129,334.646
338.183,59.0551
341.238,59.0551
344.293,59.0551
347.347,59.0551
350.402,59.0551
353.457,59.0551
356.511,59.0551
359.566,59.0551
362.621,59.0551
365.675,59.0551
368.73,59.0551
371.785,59.0551
374.839,59.0551
377.894,59.0551
380.949,59.0551
384.003,59.0551
387.058,59.0551
390.113,59.0551
393.167,59.0551
396.222,59.0551
399.277,59.0551
402.331,59.0551
405.386,59.0551
408.441,59.0551
411.495,59.0551
414.55,334.646
417.605,334.646
420.659,334.646
423.714,334.646
426.768,334.646
429.823,334.646
432.878,610.236
435.932,885.827
438.987,1161.42
442.042,2263.78
445.096,3917.32
448.151,6397.64
451.206,9980.31
454.26,10531.5
457.315,7775.59
460.37,6948.82
463.424,4744.09
466.479,2814.96
469.534,1437.01
472.588,885.827
475.643,610.236
478.698,334.646
481.752,334.646
484.807,334.646
487.862,334.646
490.916,334.646
493.971,334.646
497.026,334.646
500.08,59.0551
503.135,59.0551
506.19,59.0551
509.244,59.0551
512.299,59.0551
515.354,59.0551
518.408,59.0551
521.463,59.0551
524.518,59.0551
527.572,59.0551
530.627,59.0551
533.682,59.0551
536.736,59.0551
539.791,59.0551
542.846,334.646
545.9,334.646
548.955,334.646
552.01,334.646
555.064,334.646
558.119,334.646
561.174,334.646
564.228,334.646
567.283,59.0551
570.338,59.0551
573.392,59.0551
576.447,59.0551
579.502,59.0551
582.556,59.0551
585.611,59.0551
588.666,59.0551
591.72,334.646
594.775,334.646
597.83,334.646
600.884,334.646
603.939,334.646
606.994,610.236
610.048,885.827
613.103,1161.42
616.158,1712.6
619.212,1712.6
622.267,1712.6
625.322,1437.01
628.376,1437.01
631.431,1437.01
634.486,1437.01
637.54,1437.01
640.595,1437.01
643.65,1712.6
646.704,2263.78
649.759,1712.6
652.814,1437.01
655.868,885.827
658.923,610.236
661.977,334.646
665.032,334.646
668.087,334.646
671.141,334.646
674.196,334.646
677.251,334.646
680.305,334.646
683.36,334.646
686.415,334.646
689.469,334.646
692.524,334.646
695.579,59.0551
698.633,59.0551
701.688,59.0551
704.743,59.0551
707.797,59.0551
710.852,59.0551
713.907,59.0551
716.961,59.0551
720.016,59.0551
723.071,59.0551
726.125,59.0551
729.18,59.0551
732.235,59.0551
735.289,59.0551
738.344,59.0551
741.399,334.646
744.453,334.646
747.508,334.646
750.563,334.646
753.617,334.646
756.672,334.646
759.727,59.0551
762.781,59.0551
765.836,59.0551
768.891,59.0551
771.945,59.0551
775,334.646
778.055,334.646
781.109,334.646
784.164,334.646
787.219,334.646
790.273,334.646
793.328,334.646
796.383,59.0551
799.437,59.0551
802.492,59.0551
805.547,59.0551
808.601,59.0551
811.656,59.0551
814.711,59.0551
817.765,59.0551
820.82,59.0551
823.875,59.0551
826.929,59.0551
829.984,334.646
833.039,334.646
836.093,334.646
839.148,334.646
842.203,334.646
845.257,334.646
848.312,334.646
851.367,334.646
854.421,334.646
857.476,334.646
860.531,59.0551
863.585,59.0551
866.64,59.0551
869.695,59.0551
872.749,59.0551
875.804,59.0551
878.859,59.0551
881.913,59.0551
884.968,59.0551
888.023,59.0551
891.077,59.0551
894.132,334.646
897.186,334.646
900.241,334.646
903.296,334.646
906.35,334.646
909.405,59.0551
912.46,59.0551
915.514,59.0551
918.569,59.0551
921.624,59.0551
924.678,59.0551
927.733,59.0551
930.788,59.0551
933.842,59.0551
936.897,59.0551
939.952,59.0551
943.006,59.0551
946.061,59.0551
949.116,334.646
952.17,334.646
955.225,334.646
958.28,334.646
961.334,334.646
964.389,334.646
967.444,610.236
970.498,610.236
973.553,885.827
976.608,1161.42
979.662,1988.19
982.717,5019.69
985.772,11082.7
988.826,51594.5
991.881,58484.3
994.936,14114.2
997.99,9153.54
1001.05,2814.96
1004.1,1437.01
1007.15,885.827
1010.21,610.236
1013.26,334.646
1016.32,334.646
1019.37,334.646
1022.43,334.646
1025.48,334.646
1028.54,334.646
1031.59,59.0551
1034.65,59.0551
1037.7,59.0551
1040.76,59.0551
1043.81,59.0551
1046.86,59.0551
1049.92,59.0551
1052.97,59.0551
1056.03,59.0551
1059.08,59.0551
1062.14,59.0551
1065.19,59.0551
1068.25,59.0551
1071.3,334.646
1074.36,334.646
1077.41,334.646
1080.47,610.236
1083.52,610.236
1086.58,610.236
1089.63,885.827
1092.68,885.827
1095.74,885.827
1098.79,885.827
1101.85,1161.42
1104.9,1437.01
1107.96,1437.01
1111.01,1161.42
1114.07,1161.42
1117.12,885.827
1120.18,885.827
1123.23,610.236
1126.29,610.236
1129.34,610.236
1132.4,885.827
1135.45,1712.6
1138.5,2539.37
1141.56,2814.96
1144.61,2539.37
1147.67,2263.78
1150.72,1712.6
1153.78,1161.42
1156.83,885.827
1159.89,885.827
1162.94,885.827
1166,1161.42
1169.05,1161.42
1172.11,1161.42
1175.16,885.827
1178.22,885.827
1181.27,610.236
1184.32,610.236
1187.38,334.646
1190.43,334.646
1193.49,334.646
1196.54,334.646
1199.6,334.646
1202.65,334.646
1205.71,334.646
1208.76,334.646
1211.82,334.646
1214.87,334.646
1217.93,334.646
1220.98,334.646
1224.04,610.236
1227.09,610.236
1230.14,610.236
1233.2,885.827
1236.25,885.827
1239.31,885.827
1242.36,1161.42
1245.42,885.827
1248.47,885.827
1251.53,885.827
1254.58,610.236
1257.64,610.236
1260.69,610.236
1263.75,610.236
1266.8,610.236
1269.86,885.827
1272.91,1161.42
1275.96,1437.01
1279.02,1712.6
1282.07,2263.78
1285.13,2814.96
1288.18,3366.14
1291.24,3917.32
1294.29,4192.91
1297.35,4468.5
1300.4,4468.5
1303.46,4192.91
1306.51,4192.91
1309.57,3366.14
1312.62,2814.96
1315.68,2263.78
1318.73,1712.6
1321.78,1437.01
1324.84,1161.42
1327.89,885.827
1330.95,885.827
1334,885.827
1337.06,885.827
1340.11,885.827
1343.17,1161.42
1346.22,1161.42
1349.28,1161.42
1352.33,1161.42
1355.39,1437.01
1358.44,1161.42
1361.5,1161.42
1364.55,1161.42
1367.6,1161.42
1370.66,885.827
1373.71,610.236
1376.77,610.236
1379.82,334.646
1382.88,334.646
1385.93,334.646
1388.99,334.646
1392.04,334.646
1395.1,334.646
1398.15,334.646
1401.21,334.646
1404.26,610.236
1407.32,610.236
1410.37,610.236
1413.42,885.827
1416.48,885.827
1419.53,885.827
1422.59,885.827
1425.64,1161.42
1428.7,1161.42
1431.75,1161.42
1434.81,1161.42
1437.86,1161.42
1440.92,1161.42
1443.97,1161.42
1447.03,1161.42
1450.08,1161.42
1453.14,1161.42
1456.19,1161.42
1459.24,1161.42
1462.3,885.827
1465.35,885.827
1468.41,610.236
1471.46,610.236
1474.52,610.236
1477.57,334.646
1480.63,334.646
1483.68,334.646
1486.74,334.646
1489.79,334.646
1492.85,59.0551
1495.9,59.0551
1498.95,59.0551
1502.01,59.0551
1505.06,59.0551
1508.12,59.0551
1511.17,59.0551
1514.23,334.646
1517.28,334.646
1520.34,334.646
1523.39,334.646
1526.45,334.646
1529.5,610.236
1532.56,610.236
1535.61,610.236
1538.67,610.236
1541.72,610.236
1544.77,610.236
1547.83,334.646
1550.88,334.646
1553.94,334.646
1556.99,334.646
1560.05,334.646
1563.1,334.646
1566.16,334.646
1569.21,334.646
1572.27,334.646
1575.32,334.646
1578.38,334.646
1581.43,334.646
1584.49,334.646
1587.54,334.646
1590.59,334.646
1593.65,334.646
1596.7,334.646
1599.76,334.646
1602.81,610.236
1605.87,610.236
1608.92,610.236
1611.98,610.236
1615.03,610.236
1618.09,610.236
1621.14,610.236
1624.2,610.236
1627.25,610.236
1630.31,610.236
1633.36,610.236
1636.41,334.646
1639.47,334.646
1642.52,334.646
1645.58,334.646
1648.63,334.646
1651.69,334.646
1654.74,334.646
1657.8,610.236
1660.85,610.236
1663.91,610.236
1666.96,885.827
1670.02,1161.42
1673.07,1437.01
1676.13,1437.01
1679.18,1712.6
1682.23,1988.19
1685.29,2263.78
1688.34,2539.37
1691.4,2814.96
1694.45,3090.55
1697.51,3366.14
1700.56,3641.73
1703.62,3641.73
1706.67,3917.32
1709.73,3917.32
1712.78,3641.73
1715.84,3641.73
1718.89,3641.73
1721.95,3366.14
1725,2814.96
1728.05,2539.37
1731.11,1988.19
1734.16,1712.6
1737.22,1437.01
1740.27,1161.42
1743.33,885.827
1746.38,885.827
1749.44,610.236
1752.49,610.236
1755.55,334.646
1758.6,334.646
1761.66,334.646
1764.71,334.646
1767.77,334.646
1770.82,59.0551
1773.87,59.0551
1776.93,59.0551
1779.98,59.0551
1783.04,59.0551
1786.09,59.0551
1789.15,59.0551
1792.2,59.0551
1795.26,59.0551
1798.31,59.0551
1801.37,59.0551
1804.42,59.0551
1807.48,59.0551
1810.53,59.0551
1813.59,59.0551
1816.64,59.0551
1819.69,59.0551
1822.75,59.0551
1825.8,59.0551
1828.86,59.0551
1831.91,59.0551
1834.97,59.0551
1838.02,59.0551
1841.08,59.0551
1844.13,59.0551
1847.19,59.0551
1850.24,59.0551
1853.3,59.0551
1856.35,59.0551
1859.41,59.0551
1862.46,59.0551
1865.51,59.0551
1868.57,59.0551
1871.62,59.0551
1874.68,59.0551
1877.73,59.0551
1880.79,59.0551
1883.84,59.0551
1886.9,59.0551
1889.95,59.0551
1893.01,59.0551
1896.06,59.0551
1899.12,59.0551
1902.17,59.0551
1905.23,59.0551
1908.28,59.0551
1911.33,59.0551
1914.39,59.0551
1917.44,59.0551
1920.5,59.0551
1923.55,59.0551
1926.61,59.0551
1929.66,59.0551
1932.72,59.0551
1935.77,59.0551
1938.83,59.0551
1941.88,59.0551
1944.94,59.0551
1947.99,59.0551
1951.05,59.0551
1954.1,59.0551
1957.15,59.0551
1960.21,59.0551
1963.26,59.0551
1966.32,59.0551
1969.37,59.0551
1972.43,59.0551
1975.48,59.0551
1978.54,59.0551
1981.59,59.0551
1984.65,59.0551
1987.7,59.0551
1990.76,59.0551
1993.81,59.0551
1996.86,59.0551
1999.92,59.0551
2002.97,59.0551
2006.03,59.0551
2009.08,59.0551
2012.14,59.0551
2015.19,59.0551
2018.25,59.0551
2021.3,59.0551
2024.36,59.0551
2027.41,59.0551
2030.47,59.0551
2033.52,59.0551
2036.58,59.0551
2039.63,59.0551
2042.68,59.0551
2045.74,59.0551
2048.79,59.0551
2051.85,59.0551
2054.9,59.0551
2057.96,59.0551
2061.01,59.0551
2064.07,59.0551
2067.12,59.0551
2070.18,59.0551
2073.23,59.0551
2076.29,59.0551
2079.34,59.0551
2082.4,59.0551
2085.45,59.0551
2088.5,59.0551
2091.56,59.0551
2094.61,59.0551
2097.67,59.0551
2100.72,59.0551
2103.78,334.646
2106.83,59.0551
2109.89,59.0551
2112.94,59.0551
2116,59.0551
2119.05,59.0551
2122.11,59.0551
2125.16,59.0551
2128.22,59.0551
2131.27,59.0551
2134.32,59.0551
2137.38,59.0551
2140.43,59.0551
2143.49,59.0551
2146.54,59.0551
2149.6,59.0551
2152.65,59.0551
2155.71,59.0551
2158.76,59.0551
2161.82,59.0551
2164.87,59.0551
2167.93,59.0551
2170.98,59.0551
2174.04,59.0551
2177.09,59.0551
2180.14,59.0551
2183.2,59.0551
2186.25,334.646
2189.31,334.646
2192.36,334.646
2195.42,334.646
2198.47,334.646
2201.53,334.646
2204.58,334.646
2207.64,334.646
2210.69,334.646
2213.75,334.646
2216.8,334.646
2219.86,334.646
2222.91,334.646
2225.96,334.646
2229.02,334.646
2232.07,334.646
2235.13,334.646
2238.18,334.646
2241.24,59.0551
2244.29,59.0551
2247.35,59.0551
2250.4,59.0551
2253.46,59.0551
2256.51,59.0551
2259.57,59.0551
2262.62,59.0551
2265.68,59.0551
2268.73,59.0551
2271.78,59.0551
2274.84,59.0551
2277.89,334.646
2280.95,334.646
2284,334.646
2287.06,334.646
2290.11,334.646
2293.17,334.646
