,GP550R
RamanShit,Intensity
264.984,39.5257
268.029,39.5257
271.074,39.5257
274.119,39.5257
277.163,39.5257
280.208,39.5257
283.253,197.628
286.298,197.628
289.343,355.731
292.388,513.834
295.433,513.834
298.478,513.834
301.522,671.937
304.567,671.937
307.612,830.04
310.657,988.142
313.702,1620.55
316.747,2569.17
319.792,3359.68
322.837,5098.81
325.881,5415.02
328.926,3201.58
331.971,2252.96
335.016,988.142
338.061,355.731
341.106,197.628
344.151,39.5257
347.196,39.5257
350.24,39.5257
353.285,39.5257
356.33,39.5257
359.375,197.628
362.42,197.628
365.465,197.628
368.51,197.628
371.554,197.628
374.599,355.731
377.644,513.834
380.689,671.937
383.734,830.04
386.779,1462.45
389.824,2411.07
392.869,3675.89
395.913,4466.4
398.958,5256.92
402.003,4466.4
405.048,3359.68
408.093,1620.55
411.138,830.04
414.183,671.937
417.228,513.834
420.272,513.834
423.317,513.834
426.362,513.834
429.407,355.731
432.452,197.628
435.497,197.628
438.542,197.628
441.587,197.628
444.631,355.731
447.676,355.731
450.721,513.834
453.766,513.834
456.811,355.731
459.856,197.628
462.901,39.5257
465.946,39.5257
468.99,39.5257
472.035,39.5257
475.08,39.5257
478.125,39.5257
481.17,39.5257
484.215,39.5257
487.26,197.628
490.304,197.628
493.349,39.5257
496.394,39.5257
499.439,39.5257
502.484,39.5257
505.529,39.5257
508.574,197.628
511.619,355.731
514.663,355.731
517.708,355.731
520.753,513.834
523.798,671.937
526.843,830.04
529.888,988.142
532.933,988.142
535.978,830.04
539.022,671.937
542.067,513.834
545.112,355.731
548.157,197.628
551.202,39.5257
554.247,39.5257
557.292,39.5257
560.337,39.5257
563.381,39.5257
566.426,197.628
569.471,197.628
572.516,197.628
575.561,197.628
578.606,197.628
581.651,197.628
584.696,39.5257
587.74,39.5257
590.785,39.5257
593.83,39.5257
596.875,39.5257
599.92,39.5257
602.965,39.5257
606.01,39.5257
609.054,39.5257
612.099,39.5257
615.144,39.5257
618.189,197.628
621.234,355.731
624.279,513.834
627.324,513.834
630.369,513.834
633.413,355.731
636.458,197.628
639.503,197.628
642.548,197.628
645.593,197.628
648.638,197.628
651.683,197.628
654.728,197.628
657.772,197.628
660.817,355.731
663.862,513.834
666.907,671.937
669.952,988.142
672.997,1462.45
676.042,2411.07
679.087,4466.4
682.131,8577.08
685.176,11422.9
688.221,15849.8
691.266,11422.9
694.311,9683.79
697.356,6047.43
700.401,3201.58
703.446,1936.76
706.49,1304.35
709.535,830.04
712.58,671.937
715.625,513.834
718.67,355.731
721.715,197.628
724.76,197.628
727.804,197.628
730.849,39.5257
733.894,39.5257
736.939,39.5257
739.984,39.5257
743.029,39.5257
746.074,39.5257
749.119,39.5257
752.163,39.5257
755.208,39.5257
758.253,39.5257
761.298,39.5257
764.343,197.628
767.388,197.628
770.433,197.628
773.478,197.628
776.522,197.628
779.567,197.628
782.612,197.628
785.657,39.5257
788.702,39.5257
791.747,39.5257
794.792,39.5257
797.837,39.5257
800.881,39.5257
803.926,39.5257
806.971,39.5257
810.016,39.5257
813.061,39.5257
816.106,39.5257
819.151,39.5257
822.196,39.5257
825.24,39.5257
828.285,39.5257
831.33,39.5257
834.375,39.5257
837.42,39.5257
840.465,39.5257
843.51,39.5257
846.554,39.5257
849.599,39.5257
852.644,39.5257
855.689,39.5257
858.734,39.5257
861.779,39.5257
864.824,39.5257
867.869,39.5257
870.913,39.5257
873.958,39.5257
877.003,39.5257
880.048,39.5257
883.093,39.5257
886.138,39.5257
889.183,39.5257
892.228,39.5257
895.272,39.5257
898.317,39.5257
901.362,39.5257
904.407,39.5257
907.452,39.5257
910.497,39.5257
913.542,197.628
916.587,197.628
919.631,197.628
922.676,197.628
925.721,197.628
928.766,197.628
931.811,39.5257
934.856,39.5257
937.901,39.5257
940.946,39.5257
943.99,39.5257
947.035,39.5257
950.08,39.5257
953.125,39.5257
956.17,39.5257
959.215,39.5257
962.26,39.5257
965.304,39.5257
968.349,39.5257
971.394,39.5257
974.439,39.5257
977.484,39.5257
980.529,39.5257
983.574,39.5257
986.619,39.5257
989.663,39.5257
992.708,39.5257
995.753,39.5257
998.798,197.628
1001.84,355.731
1004.89,513.834
1007.93,671.937
1010.98,1146.25
1014.02,1146.25
1017.07,1146.25
1020.11,988.142
1023.16,830.04
1026.2,513.834
1029.25,355.731
1032.29,355.731
1035.34,355.731
1038.38,513.834
1041.43,671.937
1044.47,830.04
1047.52,1146.25
1050.56,1620.55
1053.61,2411.07
1056.65,3359.68
1059.7,4940.71
1062.74,7786.56
1065.79,11897.2
1068.83,14426.9
1071.88,18695.7
1074.92,14426.9
1077.96,14110.7
1081.01,11581
1084.05,7944.66
1087.1,5573.12
1090.14,3992.09
1093.19,2885.38
1096.23,2094.86
1099.28,1462.45
1102.32,988.142
1105.37,830.04
1108.41,513.834
1111.46,355.731
1114.5,197.628
1117.55,197.628
1120.59,39.5257
1123.64,39.5257
1126.68,39.5257
1129.73,39.5257
1132.77,39.5257
1135.82,39.5257
1138.86,39.5257
1141.91,39.5257
1144.95,39.5257
1148,39.5257
1151.04,39.5257
1154.09,39.5257
1157.13,39.5257
1160.18,39.5257
1163.22,39.5257
1166.27,39.5257
1169.31,39.5257
1172.36,39.5257
1175.4,39.5257
1178.45,39.5257
1181.49,39.5257
1184.54,39.5257
1187.58,39.5257
1190.63,39.5257
1193.67,39.5257
1196.71,39.5257
1199.76,39.5257
1202.8,39.5257
1205.85,39.5257
1208.89,39.5257
1211.94,39.5257
1214.98,39.5257
1218.03,39.5257
1221.07,39.5257
1224.12,39.5257
1227.16,39.5257
1230.21,39.5257
1233.25,39.5257
1236.3,39.5257
1239.34,197.628
1242.39,197.628
1245.43,197.628
1248.48,197.628
1251.52,197.628
1254.57,197.628
1257.61,39.5257
1260.66,39.5257
1263.7,39.5257
1266.75,39.5257
1269.79,39.5257
1272.84,39.5257
1275.88,39.5257
1278.93,39.5257
1281.97,39.5257
1285.02,39.5257
1288.06,39.5257
1291.11,39.5257
1294.15,39.5257
1297.2,39.5257
1300.24,39.5257
1303.29,39.5257
1306.33,39.5257
1309.38,39.5257
1312.42,39.5257
1315.46,39.5257
1318.51,39.5257
1321.55,39.5257
1324.6,39.5257
1327.64,39.5257
1330.69,39.5257
1333.73,39.5257
1336.78,39.5257
1339.82,197.628
1342.87,197.628
1345.91,197.628
1348.96,197.628
1352,197.628
1355.05,197.628
1358.09,197.628
1361.14,197.628
1364.18,197.628
1367.23,197.628
1370.27,197.628
1373.32,39.5257
1376.36,39.5257
1379.41,39.5257
1382.45,39.5257
1385.5,39.5257
1388.54,39.5257
1391.59,197.628
1394.63,39.5257
1397.68,39.5257
1400.72,39.5257
1403.77,39.5257
1406.81,39.5257
1409.86,39.5257
1412.9,39.5257
1415.95,39.5257
1418.99,39.5257
1422.04,39.5257
1425.08,39.5257
1428.13,39.5257
1431.17,39.5257
1434.21,39.5257
1437.26,39.5257
1440.3,39.5257
1443.35,39.5257
1446.39,39.5257
1449.44,39.5257
1452.48,39.5257
1455.53,39.5257
1458.57,39.5257
1461.62,39.5257
1464.66,39.5257
1467.71,39.5257
1470.75,39.5257
1473.8,39.5257
1476.84,39.5257
1479.89,39.5257
1482.93,39.5257
1485.98,39.5257
1489.02,39.5257
1492.07,39.5257
1495.11,39.5257
1498.16,39.5257
1501.2,39.5257
1504.25,39.5257
1507.29,39.5257
1510.34,39.5257
1513.38,39.5257
1516.43,39.5257
1519.47,39.5257
1522.52,39.5257
1525.56,39.5257
1528.61,39.5257
1531.65,39.5257
1534.7,39.5257
1537.74,39.5257
1540.79,39.5257
1543.83,197.628
1546.88,197.628
1549.92,197.628
1552.96,197.628
1556.01,197.628
1559.05,197.628
1562.1,197.628
1565.14,197.628
1568.19,197.628
1571.23,197.628
1574.28,197.628
1577.32,39.5257
1580.37,39.5257
1583.41,39.5257
1586.46,39.5257
1589.5,39.5257
1592.55,39.5257
1595.59,197.628
1598.64,197.628
1601.68,197.628
1604.73,197.628
1607.77,197.628
1610.82,197.628
1613.86,197.628
1616.91,197.628
1619.95,197.628
1623,39.5257
1626.04,39.5257
1629.09,39.5257
1632.13,39.5257
1635.18,39.5257
1638.22,39.5257
1641.27,39.5257
1644.31,39.5257
1647.36,39.5257
1650.4,39.5257
1653.45,39.5257
1656.49,39.5257
1659.54,39.5257
1662.58,39.5257
1665.63,39.5257
1668.67,39.5257
1671.71,39.5257
1674.76,39.5257
1677.8,39.5257
1680.85,39.5257
1683.89,39.5257
1686.94,39.5257
1689.98,39.5257
1693.03,39.5257
1696.07,39.5257
1699.12,39.5257
1702.16,39.5257
1705.21,39.5257
1708.25,39.5257
1711.3,39.5257
1714.34,39.5257
1717.39,39.5257
1720.43,39.5257
1723.48,39.5257
1726.52,39.5257
1729.57,39.5257
1732.61,39.5257
1735.66,197.628
1738.7,39.5257
1741.75,39.5257
1744.79,39.5257
1747.84,39.5257
1750.88,39.5257
1753.93,39.5257
1756.97,39.5257
1760.02,39.5257
1763.06,39.5257
1766.11,39.5257
1769.15,39.5257
1772.2,39.5257
1775.24,39.5257
1778.29,39.5257
1781.33,39.5257
1784.38,39.5257
1787.42,39.5257
1790.46,39.5257
1793.51,39.5257
1796.55,39.5257
1799.6,39.5257
1802.64,39.5257
1805.69,39.5257
1808.73,39.5257
1811.78,39.5257
1814.82,197.628
1817.87,197.628
1820.91,197.628
1823.96,197.628
1827,197.628
1830.05,39.5257
1833.09,39.5257
1836.14,39.5257
1839.18,39.5257
1842.23,39.5257
1845.27,197.628
1848.32,197.628
1851.36,197.628
1854.41,197.628
1857.45,197.628
1860.5,39.5257
1863.54,39.5257
1866.59,39.5257
1869.63,39.5257
1872.68,39.5257
1875.72,39.5257
1878.77,39.5257
1881.81,39.5257
1884.86,39.5257
1887.9,39.5257
1890.95,39.5257
1893.99,39.5257
1897.04,39.5257
1900.08,39.5257
1903.13,39.5257
1906.17,39.5257
1909.21,39.5257
1912.26,39.5257
1915.3,39.5257
1918.35,39.5257
1921.39,39.5257
1924.44,39.5257
1927.48,39.5257
1930.53,39.5257
1933.57,39.5257
1936.62,39.5257
1939.66,39.5257
1942.71,39.5257
1945.75,39.5257
1948.8,39.5257
1951.84,39.5257
1954.89,39.5257
1957.93,39.5257
1960.98,39.5257
1964.02,39.5257
1967.07,39.5257
1970.11,39.5257
1973.16,39.5257
1976.2,39.5257
1979.25,39.5257
1982.29,197.628
1985.34,197.628
1988.38,197.628
1991.43,197.628
1994.47,197.628
1997.52,197.628
2000.56,197.628
2003.61,197.628
2006.65,197.628
2009.7,197.628
2012.74,197.628
2015.79,197.628
2018.83,197.628
2021.88,197.628
2024.92,197.628
2027.96,197.628
2031.01,197.628
2034.05,197.628
2037.1,197.628
2040.14,197.628
2043.19,197.628
2046.23,197.628
2049.28,197.628
2052.32,197.628
2055.37,197.628
2058.41,197.628
2061.46,197.628
2064.5,197.628
2067.55,197.628
2070.59,197.628
2073.64,197.628
2076.68,197.628
2079.73,197.628
2082.77,197.628
2085.82,197.628
2088.86,197.628
2091.91,39.5257
2094.95,39.5257
2098,39.5257
2101.04,39.5257
2104.09,39.5257
2107.13,197.628
2110.18,197.628
2113.22,197.628
2116.27,197.628
2119.31,197.628
2122.36,197.628
2125.4,197.628
2128.45,197.628
2131.49,197.628
2134.54,197.628
2137.58,197.628
2140.63,197.628
2143.67,197.628
2146.71,197.628
2149.76,197.628
2152.8,197.628
2155.85,197.628
2158.89,197.628
2161.94,197.628
2164.98,197.628
2168.03,197.628
2171.07,197.628
2174.12,197.628
2177.16,197.628
2180.21,197.628
2183.25,197.628
2186.3,197.628
2189.34,197.628
2192.39,197.628
2195.43,197.628
2198.48,197.628
2201.52,197.628
2204.57,355.731
2207.61,355.731
2210.66,355.731
2213.7,355.731
2216.75,513.834
2219.79,513.834
2222.84,513.834
2225.88,513.834
2228.93,513.834
2231.97,513.834
2235.02,513.834
2238.06,513.834
2241.11,513.834
2244.15,513.834
2247.2,513.834
2250.24,513.834
2253.29,671.937
2256.33,671.937
2259.38,671.937
2262.42,671.937
2265.46,671.937
2268.51,671.937
2271.55,513.834
2274.6,513.834
2277.64,513.834
2280.69,355.731
2283.73,355.731
2286.78,197.628
2289.82,197.628
