,GP550R
RamanShit,Intensity
257.944,48.7365
261.059,48.7365
264.174,48.7365
267.29,48.7365
270.405,48.7365
273.52,48.7365
276.636,48.7365
279.751,48.7365
282.866,48.7365
285.981,48.7365
289.097,48.7365
292.212,48.7365
295.327,48.7365
298.442,27.0758
301.558,48.7365
304.673,48.7365
307.788,48.7365
310.903,48.7365
314.019,37.9061
317.134,37.9061
320.249,37.9061
323.364,37.9061
326.48,37.9061
329.595,37.9061
332.71,37.9061
335.826,37.9061
338.941,37.9061
342.056,48.7365
345.171,48.7365
348.287,27.0758
351.402,48.7365
354.517,48.7365
357.632,48.7365
360.748,81.2274
363.863,178.7
366.978,384.477
370.093,536.101
373.209,1142.6
376.324,536.101
379.439,525.271
382.555,351.986
385.67,167.87
388.785,135.379
391.9,146.209
395.016,146.209
398.131,157.04
401.246,427.798
404.361,698.556
407.477,990.975
410.592,2539.71
413.707,2810.47
416.822,1240.07
419.938,1229.24
423.053,1110.11
426.168,871.841
429.283,568.592
432.399,287.004
435.514,157.04
438.629,157.04
441.745,146.209
444.86,146.209
447.975,113.718
451.09,92.0578
454.206,48.7365
457.321,48.7365
460.436,48.7365
463.551,48.7365
466.667,48.7365
469.782,48.7365
472.897,48.7365
476.012,48.7365
479.128,48.7365
482.243,48.7365
485.358,59.5668
488.474,48.7365
491.589,48.7365
494.704,48.7365
497.819,27.0758
500.935,37.9061
504.05,37.9061
507.165,37.9061
510.28,37.9061
513.396,37.9061
516.511,48.7365
519.626,48.7365
522.741,37.9061
525.857,37.9061
528.972,37.9061
532.087,37.9061
535.202,37.9061
538.318,37.9061
541.433,37.9061
544.548,37.9061
547.664,27.0758
550.779,48.7365
553.894,48.7365
557.009,48.7365
560.125,48.7365
563.24,81.2274
566.355,146.209
569.47,189.531
572.586,319.495
575.701,189.531
578.816,178.7
581.931,124.549
585.047,59.5668
588.162,48.7365
591.277,48.7365
594.393,37.9061
597.508,37.9061
600.623,37.9061
603.738,37.9061
606.854,37.9061
609.969,48.7365
613.084,48.7365
616.199,48.7365
619.315,59.5668
622.43,81.2274
625.545,113.718
628.66,178.7
631.776,297.834
634.891,427.798
638.006,503.61
641.121,882.671
644.237,687.726
647.352,427.798
650.467,297.834
653.583,222.022
656.698,167.87
659.813,124.549
662.928,102.888
666.044,92.0578
669.159,81.2274
672.274,70.3971
675.389,59.5668
678.505,48.7365
681.62,48.7365
684.735,48.7365
687.85,48.7365
690.966,48.7365
694.081,48.7365
697.196,48.7365
700.312,48.7365
703.427,70.3971
706.542,113.718
709.657,157.04
712.773,189.531
715.888,211.191
719.003,232.852
722.118,232.852
725.234,232.852
728.349,243.682
731.464,276.173
734.579,341.155
737.695,427.798
740.81,525.271
743.925,590.253
747.04,741.877
750.156,579.422
753.271,525.271
756.386,416.968
759.502,308.664
762.617,222.022
765.732,167.87
768.847,124.549
771.963,113.718
775.078,92.0578
778.193,92.0578
781.308,81.2274
784.424,81.2274
787.539,81.2274
790.654,81.2274
793.769,81.2274
796.885,81.2274
800,81.2274
803.115,81.2274
806.231,81.2274
809.346,70.3971
812.461,70.3971
815.576,70.3971
818.692,59.5668
821.807,59.5668
824.922,59.5668
828.037,48.7365
831.153,48.7365
834.268,48.7365
837.383,48.7365
840.498,48.7365
843.614,48.7365
846.729,48.7365
849.844,48.7365
852.96,48.7365
856.075,48.7365
859.19,48.7365
862.305,48.7365
865.421,48.7365
868.536,48.7365
871.651,48.7365
874.766,48.7365
877.882,37.9061
880.997,37.9061
884.112,37.9061
887.227,37.9061
890.343,37.9061
893.458,37.9061
896.573,48.7365
899.688,27.0758
902.804,37.9061
905.919,37.9061
909.034,37.9061
912.15,37.9061
915.265,37.9061
918.38,48.7365
921.495,48.7365
924.611,48.7365
927.726,48.7365
930.841,48.7365
933.956,48.7365
937.072,48.7365
940.187,48.7365
943.302,48.7365
946.417,48.7365
949.533,48.7365
952.648,48.7365
955.763,48.7365
958.879,48.7365
961.994,48.7365
965.109,48.7365
968.224,48.7365
971.34,48.7365
974.455,48.7365
977.57,48.7365
980.685,48.7365
983.801,59.5668
986.916,59.5668
990.031,48.7365
993.146,48.7365
996.262,48.7365
999.377,27.0758
1002.49,48.7365
1005.61,48.7365
1008.72,48.7365
1011.84,48.7365
1014.95,48.7365
1018.07,48.7365
1021.18,48.7365
1024.3,48.7365
1027.41,48.7365
1030.53,48.7365
1033.64,48.7365
1036.76,48.7365
1039.88,59.5668
1042.99,48.7365
1046.11,48.7365
1049.22,48.7365
1052.34,48.7365
1055.45,48.7365
1058.57,48.7365
1061.68,48.7365
1064.8,48.7365
1067.91,48.7365
1071.03,48.7365
1074.14,48.7365
1077.26,48.7365
1080.37,48.7365
1083.49,48.7365
1086.6,48.7365
1089.72,48.7365
1092.83,48.7365
1095.95,48.7365
1099.07,27.0758
1102.18,48.7365
1105.3,48.7365
1108.41,48.7365
1111.53,48.7365
1114.64,48.7365
1117.76,48.7365
1120.87,48.7365
1123.99,48.7365
1127.1,48.7365
1130.22,48.7365
1133.33,48.7365
1136.45,48.7365
1139.56,48.7365
1142.68,48.7365
1145.79,48.7365
1148.91,48.7365
1152.02,48.7365
1155.14,48.7365
1158.26,48.7365
1161.37,48.7365
1164.49,48.7365
1167.6,48.7365
1170.72,48.7365
1173.83,48.7365
1176.95,48.7365
1180.06,48.7365
1183.18,48.7365
1186.29,48.7365
1189.41,48.7365
1192.52,48.7365
1195.64,48.7365
1198.75,48.7365
1201.87,48.7365
1204.98,48.7365
1208.1,48.7365
1211.21,48.7365
1214.33,48.7365
1217.45,48.7365
1220.56,48.7365
1223.68,48.7365
1226.79,48.7365
1229.91,48.7365
1233.02,48.7365
1236.14,48.7365
1239.25,48.7365
1242.37,48.7365
1245.48,48.7365
1248.6,27.0758
1251.71,37.9061
1254.83,37.9061
1257.94,37.9061
1261.06,37.9061
1264.17,37.9061
1267.29,48.7365
1270.4,48.7365
1273.52,59.5668
1276.64,70.3971
1279.75,70.3971
1282.87,70.3971
1285.98,81.2274
1289.1,81.2274
1292.21,92.0578
1295.33,102.888
1298.44,102.888
1301.56,102.888
1304.67,113.718
1307.79,113.718
1310.9,113.718
1314.02,113.718
1317.13,113.718
1320.25,124.549
1323.36,135.379
1326.48,178.7
1329.6,211.191
1332.71,135.379
1335.83,135.379
1338.94,135.379
1342.06,135.379
1345.17,135.379
1348.29,135.379
1351.4,135.379
1354.52,135.379
1357.63,135.379
1360.75,124.549
1363.86,113.718
1366.98,113.718
1370.09,102.888
1373.21,92.0578
1376.32,92.0578
1379.44,81.2274
1382.55,81.2274
1385.67,59.5668
1388.79,48.7365
1391.9,48.7365
1395.02,48.7365
1398.13,48.7365
1401.25,27.0758
1404.36,48.7365
1407.48,48.7365
1410.59,48.7365
1413.71,48.7365
1416.82,48.7365
1419.94,48.7365
1423.05,48.7365
1426.17,48.7365
1429.28,48.7365
1432.4,48.7365
1435.51,48.7365
1438.63,48.7365
1441.74,48.7365
1444.86,48.7365
1447.98,48.7365
1451.09,48.7365
1454.21,48.7365
1457.32,48.7365
1460.44,48.7365
1463.55,48.7365
1466.67,48.7365
1469.78,48.7365
1472.9,48.7365
1476.01,59.5668
1479.13,70.3971
1482.24,70.3971
1485.36,81.2274
1488.47,92.0578
1491.59,102.888
1494.7,113.718
1497.82,113.718
1500.93,113.718
1504.05,124.549
1507.17,124.549
1510.28,124.549
1513.4,113.718
1516.51,102.888
1519.63,92.0578
1522.74,92.0578
1525.86,92.0578
1528.97,81.2274
1532.09,70.3971
1535.2,70.3971
1538.32,59.5668
1541.43,59.5668
1544.55,59.5668
1547.66,37.9061
1550.78,48.7365
1553.89,37.9061
1557.01,48.7365
1560.12,48.7365
1563.24,48.7365
1566.36,48.7365
1569.47,48.7365
1572.59,48.7365
1575.7,48.7365
1578.82,48.7365
1581.93,48.7365
1585.05,48.7365
1588.16,48.7365
1591.28,48.7365
1594.39,48.7365
1597.51,48.7365
1600.62,37.9061
1603.74,59.5668
1606.85,59.5668
1609.97,59.5668
1613.08,59.5668
1616.2,59.5668
1619.31,70.3971
1622.43,70.3971
1625.55,70.3971
1628.66,70.3971
1631.78,70.3971
1634.89,70.3971
1638.01,70.3971
1641.12,70.3971
1644.24,59.5668
1647.35,59.5668
1650.47,37.9061
1653.58,59.5668
1656.7,59.5668
1659.81,59.5668
1662.93,48.7365
1666.04,48.7365
1669.16,48.7365
1672.27,48.7365
1675.39,48.7365
1678.5,48.7365
1681.62,48.7365
1684.74,48.7365
1687.85,48.7365
1690.97,48.7365
1694.08,48.7365
1697.2,27.0758
1700.31,48.7365
1703.43,48.7365
1706.54,48.7365
1709.66,59.5668
1712.77,70.3971
1715.89,70.3971
1719,70.3971
1722.12,70.3971
1725.23,48.7365
1728.35,48.7365
1731.46,48.7365
1734.58,48.7365
1737.69,48.7365
1740.81,48.7365
1743.93,48.7365
1747.04,27.0758
1750.16,48.7365
1753.27,48.7365
1756.39,48.7365
1759.5,48.7365
1762.62,48.7365
1765.73,48.7365
1768.85,48.7365
1771.96,48.7365
1775.08,59.5668
1778.19,48.7365
1781.31,48.7365
1784.42,48.7365
1787.54,48.7365
1790.65,48.7365
1793.77,48.7365
1796.88,48.7365
1800,27.0758
1803.12,48.7365
1806.23,48.7365
1809.35,48.7365
1812.46,48.7365
1815.58,48.7365
1818.69,48.7365
1821.81,48.7365
1824.92,48.7365
1828.04,48.7365
1831.15,48.7365
1834.27,48.7365
1837.38,48.7365
1840.5,48.7365
1843.61,48.7365
1846.73,48.7365
1849.84,27.0758
1852.96,48.7365
1856.07,48.7365
1859.19,48.7365
1862.31,48.7365
1865.42,59.5668
1868.54,59.5668
1871.65,59.5668
1874.77,59.5668
1877.88,48.7365
1881,48.7365
1884.11,48.7365
1887.23,48.7365
1890.34,48.7365
1893.46,48.7365
1896.57,48.7365
1899.69,48.7365
1902.8,48.7365
1905.92,48.7365
1909.03,48.7365
1912.15,48.7365
1915.26,59.5668
1918.38,59.5668
1921.5,59.5668
1924.61,59.5668
1927.73,59.5668
1930.84,59.5668
1933.96,59.5668
1937.07,59.5668
1940.19,59.5668
1943.3,59.5668
1946.42,37.9061
1949.53,59.5668
1952.65,59.5668
1955.76,59.5668
1958.88,59.5668
1961.99,59.5668
1965.11,59.5668
1968.22,48.7365
1971.34,48.7365
1974.45,48.7365
1977.57,48.7365
1980.69,48.7365
1983.8,48.7365
1986.92,48.7365
1990.03,48.7365
1993.15,48.7365
1996.26,48.7365
1999.38,27.0758
2002.49,48.7365
2005.61,48.7365
2008.72,48.7365
2011.84,48.7365
2014.95,48.7365
2018.07,48.7365
2021.18,48.7365
2024.3,48.7365
2027.41,48.7365
2030.53,48.7365
2033.64,48.7365
2036.76,48.7365
2039.88,48.7365
2042.99,48.7365
2046.11,48.7365
2049.22,27.0758
2052.34,48.7365
2055.45,48.7365
2058.57,48.7365
2061.68,48.7365
2064.8,48.7365
2067.91,48.7365
2071.03,48.7365
2074.14,48.7365
2077.26,48.7365
2080.37,48.7365
2083.49,48.7365
2086.6,48.7365
2089.72,48.7365
2092.83,48.7365
2095.95,48.7365
2099.07,27.0758
2102.18,48.7365
2105.3,48.7365
2108.41,48.7365
2111.53,48.7365
2114.64,48.7365
2117.76,48.7365
2120.87,48.7365
2123.99,48.7365
2127.1,48.7365
2130.22,48.7365
2133.33,48.7365
2136.45,48.7365
2139.56,59.5668
2142.68,48.7365
2145.79,48.7365
2148.91,48.7365
2152.02,48.7365
2155.14,48.7365
2158.26,48.7365
2161.37,48.7365
2164.49,48.7365
2167.6,48.7365
2170.72,48.7365
2173.83,48.7365
2176.95,48.7365
2180.06,59.5668
2183.18,59.5668
2186.29,59.5668
2189.41,59.5668
2192.52,48.7365
2195.64,48.7365
2198.75,27.0758
2201.87,48.7365
2204.98,48.7365
2208.1,48.7365
2211.21,48.7365
2214.33,48.7365
2217.45,48.7365
2220.56,48.7365
2223.68,48.7365
2226.79,59.5668
2229.91,59.5668
2233.02,59.5668
2236.14,59.5668
2239.25,48.7365
2242.37,48.7365
2245.48,48.7365
2248.6,27.0758
2251.71,48.7365
2254.83,48.7365
2257.94,48.7365
2261.06,48.7365
2264.17,48.7365
2267.29,48.7365
2270.4,59.5668
2273.52,59.5668
2276.64,48.7365
2279.75,48.7365
2282.87,48.7365
2285.98,48.7365
2289.1,48.7365
2292.21,48.7365
2295.33,48.7365
2298.44,48.7365
2301.56,48.7365
2304.67,48.7365
2307.79,48.7365
2310.9,48.7365
2314.02,48.7365
2317.13,48.7365
2320.25,48.7365
2323.36,48.7365
2326.48,59.5668
2329.6,37.9061
2332.71,37.9061
2335.83,27.0758
2338.94,27.0758
2342.06,27.0758
2345.17,16.2455
