,GP550R
RamanShit,Intensity
257.944,40.146
261.059,40.146
264.174,40.146
267.29,40.146
270.405,40.146
273.52,40.146
276.636,40.146
279.751,40.146
282.866,40.146
285.981,40.146
289.097,40.146
292.212,40.146
295.327,40.146
298.442,40.146
301.558,40.146
304.673,40.146
307.788,40.146
310.903,40.146
314.019,40.146
317.134,76.6423
320.249,76.6423
323.364,76.6423
326.48,76.6423
329.595,76.6423
332.71,76.6423
335.826,76.6423
338.941,76.6423
342.056,40.146
345.171,40.146
348.287,40.146
351.402,40.146
354.517,40.146
357.632,40.146
360.748,76.6423
363.863,113.139
366.978,149.635
370.093,405.109
373.209,551.095
376.324,186.131
379.439,186.131
382.555,149.635
385.67,113.139
388.785,113.139
391.9,113.139
395.016,113.139
398.131,149.635
401.246,149.635
404.361,332.117
407.477,514.599
410.592,1062.04
413.707,1281.02
416.822,551.095
419.938,514.599
423.053,405.109
426.168,295.62
429.283,222.628
432.399,186.131
435.514,186.131
438.629,149.635
441.745,149.635
444.86,149.635
447.975,113.139
451.09,76.6423
454.206,76.6423
457.321,76.6423
460.436,40.146
463.551,76.6423
466.667,76.6423
469.782,76.6423
472.897,76.6423
476.012,76.6423
479.128,76.6423
482.243,76.6423
485.358,76.6423
488.474,40.146
491.589,40.146
494.704,40.146
497.819,40.146
500.935,40.146
504.05,40.146
507.165,40.146
510.28,40.146
513.396,40.146
516.511,40.146
519.626,40.146
522.741,40.146
525.857,40.146
528.972,40.146
532.087,40.146
535.202,40.146
538.318,40.146
541.433,40.146
544.548,40.146
547.664,40.146
550.779,40.146
553.894,40.146
557.009,40.146
560.125,40.146
563.24,40.146
566.355,40.146
569.47,40.146
572.586,76.6423
575.701,40.146
578.816,40.146
581.931,40.146
585.047,40.146
588.162,40.146
591.277,40.146
594.393,40.146
597.508,40.146
600.623,40.146
603.738,40.146
606.854,40.146
609.969,40.146
613.084,40.146
616.199,40.146
619.315,40.146
622.43,40.146
625.545,113.139
628.66,149.635
631.776,222.628
634.891,295.62
638.006,368.613
641.121,514.599
644.237,368.613
647.352,332.117
650.467,259.124
653.583,222.628
656.698,149.635
659.813,113.139
662.928,76.6423
666.044,76.6423
669.159,76.6423
672.274,76.6423
675.389,76.6423
678.505,76.6423
681.62,76.6423
684.735,40.146
687.85,40.146
690.966,40.146
694.081,40.146
697.196,40.146
700.312,40.146
703.427,40.146
706.542,40.146
709.657,40.146
712.773,40.146
715.888,40.146
719.003,40.146
722.118,40.146
725.234,40.146
728.349,76.6423
731.464,113.139
734.579,149.635
737.695,186.131
740.81,222.628
743.925,259.124
747.04,259.124
750.156,259.124
753.271,222.628
756.386,222.628
759.502,186.131
762.617,149.635
765.732,113.139
768.847,76.6423
771.963,76.6423
775.078,76.6423
778.193,76.6423
781.308,76.6423
784.424,40.146
787.539,40.146
790.654,40.146
793.769,40.146
796.885,40.146
800,40.146
803.115,40.146
806.231,40.146
809.346,40.146
812.461,40.146
815.576,40.146
818.692,40.146
821.807,40.146
824.922,40.146
828.037,40.146
831.153,40.146
834.268,40.146
837.383,40.146
840.498,40.146
843.614,40.146
846.729,40.146
849.844,40.146
852.96,40.146
856.075,40.146
859.19,40.146
862.305,40.146
865.421,40.146
868.536,40.146
871.651,40.146
874.766,40.146
877.882,40.146
880.997,40.146
884.112,40.146
887.227,40.146
890.343,40.146
893.458,40.146
896.573,40.146
899.688,40.146
902.804,40.146
905.919,40.146
909.034,40.146
912.15,40.146
915.265,40.146
918.38,40.146
921.495,40.146
924.611,40.146
927.726,40.146
930.841,40.146
933.956,40.146
937.072,40.146
940.187,40.146
943.302,40.146
946.417,40.146
949.533,40.146
952.648,40.146
955.763,40.146
958.879,40.146
961.994,40.146
965.109,40.146
968.224,40.146
971.34,40.146
974.455,40.146
977.57,40.146
980.685,40.146
983.801,40.146
986.916,40.146
990.031,40.146
993.146,40.146
996.262,40.146
999.377,40.146
1002.49,40.146
1005.61,40.146
1008.72,40.146
1011.84,40.146
1014.95,40.146
1018.07,40.146
1021.18,40.146
1024.3,40.146
1027.41,40.146
1030.53,40.146
1033.64,40.146
1036.76,40.146
1039.88,40.146
1042.99,40.146
1046.11,40.146
1049.22,3.64964
1052.34,3.64964
1055.45,3.64964
1058.57,3.64964
1061.68,3.64964
1064.8,40.146
1067.91,40.146
1071.03,40.146
1074.14,40.146
1077.26,40.146
1080.37,40.146
1083.49,40.146
1086.6,3.64964
1089.72,3.64964
1092.83,3.64964
1095.95,3.64964
1099.07,3.64964
1102.18,3.64964
1105.3,3.64964
1108.41,40.146
1111.53,40.146
1114.64,40.146
1117.76,40.146
1120.87,40.146
1123.99,40.146
1127.1,40.146
1130.22,40.146
1133.33,40.146
1136.45,76.6423
1139.56,113.139
1142.68,149.635
1145.79,186.131
1148.91,186.131
1152.02,222.628
1155.14,295.62
1158.26,332.117
1161.37,368.613
1164.49,405.109
1167.6,405.109
1170.72,441.606
1173.83,478.102
1176.95,551.095
1180.06,551.095
1183.18,551.095
1186.29,551.095
1189.41,551.095
1192.52,551.095
1195.64,551.095
1198.75,551.095
1201.87,551.095
1204.98,551.095
1208.1,478.102
1211.21,441.606
1214.33,368.613
1217.45,332.117
1220.56,259.124
1223.68,222.628
1226.79,186.131
1229.91,113.139
1233.02,76.6423
1236.14,40.146
1239.25,3.64964
1242.37,3.64964
1245.48,-32.8467
1248.6,-32.8467
1251.71,-32.8467
1254.83,-32.8467
1257.94,-32.8467
1261.06,-32.8467
1264.17,3.64964
1267.29,40.146
1270.4,149.635
1273.52,295.62
1276.64,551.095
1279.75,806.569
1282.87,952.555
1285.98,1171.53
1289.1,1609.49
1292.21,2193.43
1295.33,2558.39
1298.44,2850.36
1301.56,3361.31
1304.67,3945.26
1307.79,4638.69
1310.9,5113.14
1314.02,5478.1
1317.13,5989.05
1320.25,6572.99
1323.36,6937.96
1326.48,7120.44
1329.6,7485.4
1332.71,7886.86
1335.83,8069.34
1338.94,8105.84
1342.06,8178.83
1345.17,8069.34
1348.29,7996.35
1351.4,7704.38
1354.52,7485.4
1357.63,7412.41
1360.75,7047.45
1363.86,6500
1366.98,6171.53
1370.09,6025.55
1373.21,5514.6
1376.32,4821.17
1379.44,4310.22
1382.55,3908.76
1385.67,3543.8
1388.79,3178.83
1391.9,2667.88
1395.02,2302.92
1398.13,2120.44
1401.25,1901.46
1404.36,1536.5
1407.48,1171.53
1410.59,989.051
1413.71,916.058
1416.82,733.577
1419.94,624.088
1423.05,514.599
1426.17,368.613
1429.28,259.124
1432.4,186.131
1435.51,113.139
1438.63,76.6423
1441.74,76.6423
1444.86,40.146
1447.98,40.146
1451.09,40.146
1454.21,40.146
1457.32,40.146
1460.44,40.146
1463.55,76.6423
1466.67,113.139
1469.78,149.635
1472.9,149.635
1476.01,222.628
1479.13,332.117
1482.24,441.606
1485.36,478.102
1488.47,551.095
1491.59,660.584
1494.7,770.073
1497.82,806.569
1500.93,843.066
1504.05,916.058
1507.17,989.051
1510.28,1025.55
1513.4,1025.55
1516.51,1025.55
1519.63,1062.04
1522.74,1062.04
1525.86,1062.04
1528.97,1062.04
1532.09,1062.04
1535.2,989.051
1538.32,916.058
1541.43,843.066
1544.55,806.569
1547.66,733.577
1550.78,697.08
1553.89,624.088
1557.01,551.095
1560.12,478.102
1563.24,405.109
1566.36,368.613
1569.47,332.117
1572.59,259.124
1575.7,186.131
1578.82,113.139
1581.93,113.139
1585.05,113.139
1588.16,113.139
1591.28,113.139
1594.39,149.635
1597.51,149.635
1600.62,186.131
1603.74,186.131
1606.85,295.62
1609.97,368.613
1613.08,368.613
1616.2,441.606
1619.31,478.102
1622.43,551.095
1625.55,587.591
1628.66,660.584
1631.78,733.577
1634.89,806.569
1638.01,879.562
1641.12,952.555
1644.24,1025.55
1647.35,1025.55
1650.47,1062.04
1653.58,1098.54
1656.7,1098.54
1659.81,1135.04
1662.93,1171.53
1666.04,1171.53
1669.16,1135.04
1672.27,1135.04
1675.39,1135.04
1678.5,1062.04
1681.62,1062.04
1684.74,1062.04
1687.85,1025.55
1690.97,1025.55
1694.08,952.555
1697.2,916.058
1700.31,879.562
1703.43,879.562
1706.54,770.073
1709.66,697.08
1712.77,660.584
1715.89,660.584
1719,624.088
1722.12,514.599
1725.23,441.606
1728.35,405.109
1731.46,405.109
1734.58,332.117
1737.69,222.628
1740.81,186.131
1743.93,186.131
1747.04,149.635
1750.16,149.635
1753.27,113.139
1756.39,76.6423
1759.5,76.6423
1762.62,76.6423
1765.73,40.146
1768.85,40.146
1771.96,40.146
1775.08,40.146
1778.19,40.146
1781.31,76.6423
1784.42,113.139
1787.54,149.635
1790.65,149.635
1793.77,149.635
1796.88,149.635
1800,149.635
1803.12,149.635
1806.23,186.131
1809.35,186.131
1812.46,259.124
1815.58,295.62
1818.69,295.62
1821.81,332.117
1824.92,332.117
1828.04,332.117
1831.15,332.117
1834.27,368.613
1837.38,368.613
1840.5,405.109
1843.61,405.109
1846.73,405.109
1849.84,405.109
1852.96,405.109
1856.07,405.109
1859.19,405.109
1862.31,405.109
1865.42,405.109
1868.54,368.613
1871.65,368.613
1874.77,368.613
1877.88,368.613
1881,368.613
1884.11,332.117
1887.23,295.62
1890.34,295.62
1893.46,295.62
1896.57,259.124
1899.69,259.124
1902.8,259.124
1905.92,222.628
1909.03,186.131
1912.15,186.131
1915.26,149.635
1918.38,149.635
1921.5,149.635
1924.61,149.635
1927.73,149.635
1930.84,149.635
1933.96,149.635
1937.07,113.139
1940.19,113.139
1943.3,113.139
1946.42,76.6423
1949.53,40.146
1952.65,40.146
1955.76,40.146
1958.88,40.146
1961.99,40.146
1965.11,40.146
1968.22,40.146
1971.34,40.146
1974.45,40.146
1977.57,40.146
1980.69,40.146
1983.8,3.64964
1986.92,40.146
1990.03,40.146
1993.15,40.146
1996.26,40.146
1999.38,40.146
2002.49,40.146
2005.61,40.146
2008.72,40.146
2011.84,40.146
2014.95,40.146
2018.07,40.146
2021.18,40.146
2024.3,40.146
2027.41,40.146
2030.53,40.146
2033.64,40.146
2036.76,40.146
2039.88,40.146
2042.99,40.146
2046.11,40.146
2049.22,40.146
2052.34,40.146
2055.45,40.146
2058.57,40.146
2061.68,40.146
2064.8,40.146
2067.91,40.146
2071.03,40.146
2074.14,40.146
2077.26,40.146
2080.37,40.146
2083.49,40.146
2086.6,40.146
2089.72,40.146
2092.83,40.146
2095.95,40.146
2099.07,40.146
2102.18,40.146
2105.3,40.146
2108.41,40.146
2111.53,40.146
2114.64,40.146
2117.76,40.146
2120.87,40.146
2123.99,40.146
2127.1,40.146
2130.22,40.146
2133.33,40.146
2136.45,40.146
2139.56,40.146
2142.68,40.146
2145.79,40.146
2148.91,40.146
2152.02,40.146
2155.14,40.146
2158.26,40.146
2161.37,40.146
2164.49,40.146
2167.6,76.6423
2170.72,76.6423
2173.83,76.6423
2176.95,76.6423
2180.06,76.6423
2183.18,76.6423
2186.29,76.6423
2189.41,40.146
2192.52,40.146
2195.64,40.146
2198.75,40.146
2201.87,76.6423
2204.98,76.6423
2208.1,76.6423
2211.21,76.6423
2214.33,76.6423
2217.45,113.139
2220.56,113.139
2223.68,113.139
2226.79,113.139
2229.91,113.139
2233.02,113.139
2236.14,113.139
2239.25,113.139
2242.37,76.6423
2245.48,113.139
2248.6,113.139
2251.71,76.6423
2254.83,76.6423
2257.94,76.6423
2261.06,76.6423
2264.17,76.6423
2267.29,76.6423
2270.4,76.6423
2273.52,40.146
2276.64,40.146
2279.75,40.146
2282.87,40.146
2285.98,40.146
2289.1,40.146
2292.21,40.146
2295.33,40.146
2298.44,40.146
2301.56,40.146
2304.67,40.146
2307.79,40.146
2310.9,40.146
2314.02,40.146
2317.13,40.146
2320.25,40.146
2323.36,40.146
2326.48,40.146
2329.6,40.146
