,GP550R
RamanShit,Intensity
263.462,16.129
266.639,16.129
269.816,41.2186
272.993,66.3082
276.171,91.3978
279.348,141.577
282.525,191.756
285.702,191.756
288.88,216.846
292.057,216.846
295.234,216.846
298.411,241.935
301.589,267.025
304.766,317.204
307.943,417.563
311.12,568.1
314.298,1120.07
317.475,1170.25
320.652,568.1
323.829,568.1
327.007,367.384
330.184,91.3978
333.361,41.2186
336.538,41.2186
339.716,41.2186
342.893,16.129
346.07,16.129
349.247,16.129
352.425,16.129
355.602,16.129
358.779,16.129
361.957,16.129
365.134,16.129
368.311,41.2186
371.488,66.3082
374.666,116.487
377.843,141.577
381.02,216.846
384.197,267.025
387.375,292.115
390.552,743.728
393.729,618.28
396.906,317.204
400.084,292.115
403.261,292.115
406.438,292.115
409.615,267.025
412.793,241.935
415.97,241.935
419.147,241.935
422.324,241.935
425.502,241.935
428.679,241.935
431.856,216.846
435.033,216.846
438.211,216.846
441.388,367.384
444.565,292.115
447.742,191.756
450.92,141.577
454.097,116.487
457.274,91.3978
460.452,41.2186
463.629,16.129
466.806,16.129
469.983,16.129
473.161,16.129
476.338,16.129
479.515,16.129
482.692,16.129
485.87,16.129
489.047,16.129
492.224,16.129
495.401,41.2186
498.579,41.2186
501.756,41.2186
504.933,66.3082
508.11,91.3978
511.288,116.487
514.465,216.846
517.642,317.204
520.819,317.204
523.997,392.473
527.174,342.294
530.351,317.204
533.528,267.025
536.706,166.667
539.883,91.3978
543.06,91.3978
546.237,66.3082
549.415,66.3082
552.592,66.3082
555.769,66.3082
558.946,66.3082
562.124,91.3978
565.301,91.3978
568.478,116.487
571.656,141.577
574.833,141.577
578.01,166.667
581.187,141.577
584.365,116.487
587.542,116.487
590.719,66.3082
593.896,41.2186
597.074,41.2186
600.251,41.2186
603.428,41.2186
606.605,16.129
609.783,16.129
612.96,41.2186
616.137,66.3082
619.314,66.3082
622.492,66.3082
625.669,66.3082
628.846,41.2186
632.023,41.2186
635.201,16.129
638.378,16.129
641.555,16.129
644.732,16.129
647.91,16.129
651.087,16.129
654.264,66.3082
657.441,91.3978
660.619,141.577
663.796,292.115
666.973,844.086
670.151,1320.79
673.328,1546.59
676.505,1797.49
679.682,1822.58
682.86,4557.35
686.037,3051.97
689.214,1797.49
692.391,1521.51
695.569,969.534
698.746,568.1
701.923,417.563
705.1,292.115
708.278,191.756
711.455,141.577
714.632,116.487
717.809,91.3978
720.987,66.3082
724.164,41.2186
727.341,41.2186
730.518,16.129
733.696,16.129
736.873,16.129
740.05,16.129
743.227,41.2186
746.405,41.2186
749.582,41.2186
752.759,66.3082
755.936,91.3978
759.114,116.487
762.291,116.487
765.468,141.577
768.645,191.756
771.823,141.577
775,141.577
778.177,116.487
781.355,116.487
784.532,66.3082
787.709,41.2186
790.886,41.2186
794.064,41.2186
797.241,41.2186
800.418,16.129
803.595,16.129
806.773,16.129
809.95,16.129
813.127,16.129
816.304,16.129
819.482,16.129
822.659,16.129
825.836,16.129
829.013,16.129
832.191,16.129
835.368,16.129
838.545,16.129
841.722,16.129
844.9,16.129
848.077,16.129
851.254,16.129
854.431,16.129
857.609,16.129
860.786,16.129
863.963,16.129
867.14,16.129
870.318,16.129
873.495,16.129
876.672,16.129
879.849,16.129
883.027,16.129
886.204,16.129
889.381,16.129
892.559,66.3082
895.736,91.3978
898.913,91.3978
902.09,91.3978
905.268,116.487
908.445,141.577
911.622,141.577
914.799,141.577
917.977,141.577
921.154,141.577
924.331,116.487
927.508,91.3978
930.686,91.3978
933.863,66.3082
937.04,41.2186
940.217,16.129
943.395,16.129
946.572,16.129
949.749,16.129
952.926,16.129
956.104,16.129
959.281,16.129
962.458,16.129
965.635,16.129
968.813,16.129
971.99,16.129
975.167,16.129
978.344,41.2186
981.522,41.2186
984.699,66.3082
987.876,116.487
991.054,191.756
994.231,267.025
997.408,417.563
1000.59,618.28
1003.76,743.728
1006.94,768.817
1010.12,1270.61
1013.29,1145.16
1016.47,718.638
1019.65,618.28
1022.83,442.652
1026,317.204
1029.18,216.846
1032.36,216.846
1035.54,191.756
1038.71,241.935
1041.89,267.025
1045.07,292.115
1048.24,417.563
1051.42,643.369
1054.6,919.355
1057.78,1396.06
1060.95,1747.31
1064.13,1872.76
1067.31,2926.52
1070.48,1722.22
1073.66,1697.13
1076.84,1697.13
1080.02,1396.06
1083.19,919.355
1086.37,593.19
1089.55,417.563
1092.73,317.204
1095.9,216.846
1099.08,141.577
1102.26,116.487
1105.43,66.3082
1108.61,41.2186
1111.79,41.2186
1114.97,41.2186
1118.14,16.129
1121.32,16.129
1124.5,16.129
1127.68,41.2186
1130.85,41.2186
1134.03,41.2186
1137.21,66.3082
1140.38,41.2186
1143.56,41.2186
1146.74,41.2186
1149.92,16.129
1153.09,16.129
1156.27,16.129
1159.45,16.129
1162.63,16.129
1165.8,16.129
1168.98,16.129
1172.16,16.129
1175.33,16.129
1178.51,16.129
1181.69,41.2186
1184.87,41.2186
1188.04,41.2186
1191.22,41.2186
1194.4,41.2186
1197.58,41.2186
1200.75,41.2186
1203.93,41.2186
1207.11,41.2186
1210.28,41.2186
1213.46,41.2186
1216.64,41.2186
1219.82,66.3082
1222.99,91.3978
1226.17,116.487
1229.35,141.577
1232.53,166.667
1235.7,191.756
1238.88,342.294
1242.06,267.025
1245.23,166.667
1248.41,166.667
1251.59,116.487
1254.77,66.3082
1257.94,16.129
1261.12,16.129
1264.3,16.129
1267.47,16.129
1270.65,16.129
1273.83,16.129
1277.01,16.129
1280.18,16.129
1283.36,16.129
1286.54,16.129
1289.72,16.129
1292.89,16.129
1296.07,16.129
1299.25,16.129
1302.42,16.129
1305.6,16.129
1308.78,16.129
1311.96,16.129
1315.13,16.129
1318.31,16.129
1321.49,16.129
1324.67,16.129
1327.84,16.129
1331.02,16.129
1334.2,16.129
1337.37,16.129
1340.55,16.129
1343.73,16.129
1346.91,16.129
1350.08,16.129
1353.26,16.129
1356.44,16.129
1359.62,16.129
1362.79,16.129
1365.97,16.129
1369.15,16.129
1372.32,16.129
1375.5,41.2186
1378.68,41.2186
1381.86,41.2186
1385.03,66.3082
1388.21,66.3082
1391.39,41.2186
1394.57,41.2186
1397.74,16.129
1400.92,16.129
1404.1,16.129
1407.27,16.129
1410.45,16.129
1413.63,16.129
1416.81,16.129
1419.98,16.129
1423.16,16.129
1426.34,16.129
1429.52,16.129
1432.69,16.129
1435.87,16.129
1439.05,16.129
1442.22,16.129
1445.4,16.129
1448.58,16.129
1451.76,16.129
1454.93,16.129
1458.11,16.129
1461.29,16.129
1464.46,16.129
1467.64,16.129
1470.82,16.129
1474,16.129
1477.17,16.129
1480.35,16.129
1483.53,16.129
1486.71,16.129
1489.88,16.129
1493.06,16.129
1496.24,16.129
1499.41,16.129
1502.59,16.129
1505.77,16.129
1508.95,16.129
1512.12,16.129
1515.3,16.129
1518.48,16.129
1521.66,16.129
1524.83,16.129
1528.01,16.129
1531.19,16.129
1534.36,16.129
1537.54,16.129
1540.72,16.129
1543.9,16.129
1547.07,16.129
1550.25,16.129
1553.43,16.129
1556.61,16.129
1559.78,16.129
1562.96,16.129
1566.14,16.129
1569.31,16.129
1572.49,16.129
1575.67,16.129
1578.85,16.129
1582.02,16.129
1585.2,16.129
1588.38,16.129
1591.56,16.129
1594.73,16.129
1597.91,16.129
1601.09,16.129
1604.26,16.129
1607.44,16.129
1610.62,16.129
1613.8,16.129
1616.97,16.129
1620.15,16.129
1623.33,16.129
1626.51,16.129
1629.68,16.129
1632.86,16.129
1636.04,16.129
1639.21,16.129
1642.39,16.129
1645.57,16.129
1648.75,16.129
1651.92,16.129
1655.1,16.129
1658.28,16.129
1661.45,16.129
1664.63,16.129
1667.81,16.129
1670.99,16.129
1674.16,16.129
1677.34,16.129
1680.52,16.129
1683.7,16.129
1686.87,16.129
1690.05,16.129
1693.23,16.129
1696.4,16.129
1699.58,16.129
1702.76,16.129
1705.94,16.129
1709.11,16.129
1712.29,16.129
1715.47,16.129
1718.65,16.129
1721.82,16.129
1725,16.129
1728.18,16.129
1731.35,16.129
1734.53,16.129
1737.71,16.129
1740.89,16.129
1744.06,16.129
1747.24,16.129
1750.42,16.129
1753.6,16.129
1756.77,16.129
1759.95,41.2186
1763.13,41.2186
1766.3,41.2186
1769.48,41.2186
1772.66,41.2186
1775.84,41.2186
1779.01,16.129
1782.19,41.2186
1785.37,41.2186
1788.55,41.2186
1791.72,41.2186
1794.9,41.2186
1798.08,41.2186
1801.25,41.2186
1804.43,41.2186
1807.61,16.129
1810.79,16.129
1813.96,16.129
1817.14,16.129
1820.32,16.129
1823.49,16.129
1826.67,16.129
1829.85,41.2186
1833.03,41.2186
1836.2,41.2186
1839.38,41.2186
1842.56,41.2186
1845.74,41.2186
1848.91,41.2186
1852.09,16.129
1855.27,16.129
1858.44,16.129
1861.62,16.129
1864.8,16.129
1867.98,16.129
1871.15,16.129
1874.33,16.129
1877.51,16.129
1880.69,41.2186
1883.86,66.3082
1887.04,66.3082
1890.22,66.3082
1893.39,66.3082
1896.57,66.3082
1899.75,66.3082
1902.93,41.2186
1906.1,41.2186
1909.28,41.2186
1912.46,16.129
1915.64,16.129
1918.81,16.129
1921.99,16.129
1925.17,16.129
1928.34,16.129
1931.52,16.129
1934.7,16.129
1937.88,16.129
1941.05,41.2186
1944.23,16.129
1947.41,16.129
1950.59,16.129
1953.76,16.129
1956.94,16.129
1960.12,16.129
1963.29,16.129
1966.47,16.129
1969.65,41.2186
1972.83,66.3082
1976,66.3082
1979.18,66.3082
1982.36,41.2186
1985.54,41.2186
1988.71,41.2186
1991.89,41.2186
1995.07,41.2186
1998.24,41.2186
2001.42,16.129
2004.6,16.129
2007.78,16.129
2010.95,16.129
2014.13,41.2186
2017.31,41.2186
2020.48,41.2186
2023.66,66.3082
2026.84,66.3082
2030.02,66.3082
2033.19,66.3082
2036.37,66.3082
2039.55,66.3082
2042.73,66.3082
2045.9,66.3082
2049.08,41.2186
2052.26,41.2186
2055.43,41.2186
2058.61,16.129
2061.79,16.129
2064.97,41.2186
2068.14,41.2186
2071.32,66.3082
2074.5,66.3082
2077.68,66.3082
2080.85,66.3082
2084.03,66.3082
2087.21,66.3082
2090.38,66.3082
2093.56,66.3082
2096.74,66.3082
2099.92,66.3082
2103.09,66.3082
2106.27,66.3082
2109.45,66.3082
2112.63,66.3082
2115.8,66.3082
2118.98,66.3082
2122.16,66.3082
2125.33,66.3082
2128.51,66.3082
2131.69,66.3082
2134.87,66.3082
2138.04,66.3082
2141.22,41.2186
2144.4,66.3082
2147.58,66.3082
2150.75,66.3082
2153.93,66.3082
2157.11,66.3082
2160.28,66.3082
2163.46,66.3082
2166.64,66.3082
2169.82,66.3082
2172.99,66.3082
2176.17,66.3082
2179.35,66.3082
2182.53,66.3082
2185.7,91.3978
2188.88,91.3978
2192.06,91.3978
2195.23,91.3978
2198.41,91.3978
2201.59,91.3978
2204.77,91.3978
2207.94,91.3978
2211.12,66.3082
2214.3,66.3082
2217.47,66.3082
2220.65,66.3082
2223.83,66.3082
2227.01,66.3082
2230.18,66.3082
2233.36,66.3082
2236.54,66.3082
2239.72,66.3082
2242.89,66.3082
2246.07,66.3082
2249.25,66.3082
2252.42,66.3082
2255.6,66.3082
2258.78,66.3082
2261.96,66.3082
2265.13,66.3082
2268.31,41.2186
2271.49,41.2186
2274.67,41.2186
2277.84,16.129
2281.02,16.129
2284.2,16.129
2287.37,41.2186
2290.55,41.2186
2293.73,66.3082
2296.91,66.3082
2300.08,66.3082
2303.26,66.3082
2306.44,66.3082
2309.62,41.2186
2312.79,41.2186
2315.97,41.2186
2319.15,41.2186
2322.32,41.2186
2325.5,41.2186
2328.68,16.129
2331.86,16.129
2335.03,16.129
