,GP550R
RamanShit,Intensity
261.755,116.142
264.815,116.142
267.874,143.701
270.934,143.701
273.994,143.701
277.053,143.701
280.113,198.819
283.172,391.732
286.232,419.291
289.291,501.969
292.351,612.205
295.411,639.764
298.47,1742.13
301.53,2899.61
304.589,446.85
307.649,253.937
310.709,226.378
313.768,309.055
316.828,419.291
319.887,529.528
322.947,1935.04
326.006,2596.46
329.066,364.173
332.126,171.26
335.185,116.142
338.245,88.5827
341.304,116.142
344.364,116.142
347.424,143.701
350.483,171.26
353.543,253.937
356.602,998.031
359.662,1163.39
362.721,529.528
365.781,694.882
368.841,694.882
371.9,722.441
374.96,832.677
378.019,1025.59
381.079,1273.62
384.138,2045.28
387.198,1935.04
390.258,1907.48
393.317,1687.01
396.377,1907.48
399.436,1935.04
402.496,2100.39
405.556,722.441
408.615,529.528
411.675,309.055
414.734,364.173
417.794,364.173
420.853,391.732
423.913,419.291
426.973,501.969
430.032,777.559
433.092,998.031
436.151,1576.77
439.211,998.031
442.271,832.677
445.33,639.764
448.39,529.528
451.449,281.496
454.509,88.5827
457.568,88.5827
460.628,88.5827
463.688,143.701
466.747,198.819
469.807,336.614
472.866,639.764
475.926,1080.71
478.986,1852.36
482.045,2375.98
485.105,4029.53
488.164,2375.98
491.224,1907.48
494.283,1163.39
497.343,722.441
500.403,501.969
503.462,419.291
506.522,391.732
509.581,364.173
512.641,309.055
515.7,226.378
518.76,116.142
521.82,88.5827
524.879,61.0236
527.939,61.0236
530.998,61.0236
534.058,61.0236
537.118,33.4646
540.177,33.4646
543.237,33.4646
546.296,33.4646
549.356,61.0236
552.415,116.142
555.475,171.26
558.535,226.378
561.594,474.409
564.654,226.378
567.713,198.819
570.773,171.26
573.833,116.142
576.892,143.701
579.952,143.701
583.011,198.819
586.071,143.701
589.13,143.701
592.19,171.26
595.25,171.26
598.309,226.378
601.369,281.496
604.428,584.646
607.488,446.85
610.548,253.937
613.607,253.937
616.667,253.937
619.726,253.937
622.786,281.496
625.845,309.055
628.905,364.173
631.965,309.055
635.024,309.055
638.084,253.937
641.143,198.819
644.203,143.701
647.262,171.26
650.322,198.819
653.382,226.378
656.441,336.614
659.501,253.937
662.56,253.937
665.62,226.378
668.68,226.378
671.739,198.819
674.799,171.26
677.858,88.5827
680.918,88.5827
683.977,61.0236
687.037,33.4646
690.097,33.4646
693.156,61.0236
696.216,61.0236
699.275,61.0236
702.335,61.0236
705.395,61.0236
708.454,61.0236
711.514,61.0236
714.573,61.0236
717.633,61.0236
720.692,61.0236
723.752,61.0236
726.812,61.0236
729.871,61.0236
732.931,61.0236
735.99,61.0236
739.05,61.0236
742.11,61.0236
745.169,61.0236
748.229,61.0236
751.288,61.0236
754.348,33.4646
757.407,33.4646
760.467,33.4646
763.527,33.4646
766.586,61.0236
769.646,61.0236
772.705,61.0236
775.765,61.0236
778.824,61.0236
781.884,61.0236
784.944,61.0236
788.003,61.0236
791.063,61.0236
794.122,88.5827
797.182,116.142
800.242,116.142
803.301,116.142
806.361,116.142
809.42,116.142
812.48,88.5827
815.539,88.5827
818.599,88.5827
821.659,88.5827
824.718,88.5827
827.778,61.0236
830.837,61.0236
833.897,61.0236
836.957,61.0236
840.016,61.0236
843.076,33.4646
846.135,33.4646
849.195,33.4646
852.254,33.4646
855.314,33.4646
858.374,33.4646
861.433,33.4646
864.493,33.4646
867.552,33.4646
870.612,33.4646
873.671,61.0236
876.731,88.5827
879.791,116.142
882.85,143.701
885.91,198.819
888.969,226.378
892.029,226.378
895.089,226.378
898.148,226.378
901.208,226.378
904.267,198.819
907.327,171.26
910.386,171.26
913.446,171.26
916.506,226.378
919.565,253.937
922.625,309.055
925.684,391.732
928.744,474.409
931.804,639.764
934.863,887.795
937.923,1190.94
940.982,1631.89
944.042,2403.54
947.101,2927.17
950.161,3533.46
953.221,2927.17
956.28,2844.49
959.34,2541.34
962.399,2045.28
965.459,1549.21
968.519,1080.71
971.578,694.882
974.638,446.85
977.697,281.496
980.757,226.378
983.816,198.819
986.876,171.26
989.936,198.819
992.995,226.378
996.055,281.496
999.114,309.055
1002.17,446.85
1005.23,281.496
1008.29,226.378
1011.35,116.142
1014.41,88.5827
1017.47,33.4646
1020.53,33.4646
1023.59,33.4646
1026.65,33.4646
1029.71,33.4646
1032.77,61.0236
1035.83,33.4646
1038.89,33.4646
1041.95,33.4646
1045.01,33.4646
1048.07,33.4646
1051.13,33.4646
1054.19,33.4646
1057.25,61.0236
1060.31,61.0236
1063.37,61.0236
1066.43,61.0236
1069.48,61.0236
1072.54,61.0236
1075.6,61.0236
1078.66,61.0236
1081.72,61.0236
1084.78,61.0236
1087.84,61.0236
1090.9,61.0236
1093.96,61.0236
1097.02,61.0236
1100.08,61.0236
1103.14,61.0236
1106.2,61.0236
1109.26,61.0236
1112.32,61.0236
1115.38,61.0236
1118.44,88.5827
1121.5,88.5827
1124.56,88.5827
1127.62,88.5827
1130.68,88.5827
1133.74,88.5827
1136.8,61.0236
1139.86,61.0236
1142.91,61.0236
1145.97,61.0236
1149.03,33.4646
1152.09,33.4646
1155.15,33.4646
1158.21,33.4646
1161.27,33.4646
1164.33,61.0236
1167.39,61.0236
1170.45,61.0236
1173.51,61.0236
1176.57,61.0236
1179.63,61.0236
1182.69,61.0236
1185.75,61.0236
1188.81,61.0236
1191.87,61.0236
1194.93,61.0236
1197.99,61.0236
1201.05,61.0236
1204.11,61.0236
1207.17,61.0236
1210.23,61.0236
1213.29,61.0236
1216.34,33.4646
1219.4,33.4646
1222.46,5.90551
1225.52,5.90551
1228.58,5.90551
1231.64,5.90551
1234.7,5.90551
1237.76,5.90551
1240.82,5.90551
1243.88,5.90551
1246.94,5.90551
1250,5.90551
1253.06,5.90551
1256.12,5.90551
1259.18,5.90551
1262.24,5.90551
1265.3,5.90551
1268.36,5.90551
1271.42,5.90551
1274.48,5.90551
1277.54,5.90551
1280.6,5.90551
1283.66,5.90551
1286.71,5.90551
1289.77,5.90551
1292.83,5.90551
1295.89,5.90551
1298.95,5.90551
1302.01,5.90551
1305.07,5.90551
1308.13,5.90551
1311.19,5.90551
1314.25,5.90551
1317.31,5.90551
1320.37,5.90551
1323.43,5.90551
1326.49,5.90551
1329.55,5.90551
1332.61,5.90551
1335.67,5.90551
1338.73,5.90551
1341.79,5.90551
1344.85,5.90551
1347.91,5.90551
1350.97,5.90551
1354.03,5.90551
1357.09,5.90551
1360.14,5.90551
1363.2,5.90551
1366.26,5.90551
1369.32,5.90551
1372.38,5.90551
1375.44,5.90551
1378.5,5.90551
1381.56,5.90551
1384.62,5.90551
1387.68,5.90551
1390.74,5.90551
1393.8,5.90551
1396.86,5.90551
1399.92,5.90551
1402.98,5.90551
1406.04,5.90551
1409.1,5.90551
1412.16,5.90551
1415.22,5.90551
1418.28,5.90551
1421.34,5.90551
1424.4,5.90551
1427.46,5.90551
1430.52,5.90551
1433.57,5.90551
1436.63,5.90551
1439.69,5.90551
1442.75,5.90551
1445.81,5.90551
1448.87,5.90551
1451.93,5.90551
1454.99,5.90551
1458.05,5.90551
1461.11,5.90551
1464.17,5.90551
1467.23,5.90551
1470.29,5.90551
1473.35,5.90551
1476.41,5.90551
1479.47,5.90551
1482.53,5.90551
1485.59,5.90551
1488.65,5.90551
1491.71,5.90551
1494.77,5.90551
1497.83,5.90551
1500.89,5.90551
1503.95,5.90551
1507,5.90551
1510.06,5.90551
1513.12,5.90551
1516.18,5.90551
1519.24,5.90551
1522.3,5.90551
1525.36,5.90551
1528.42,5.90551
1531.48,5.90551
1534.54,5.90551
1537.6,5.90551
1540.66,5.90551
1543.72,5.90551
1546.78,5.90551
1549.84,5.90551
1552.9,5.90551
1555.96,5.90551
1559.02,5.90551
1562.08,5.90551
1565.14,5.90551
1568.2,5.90551
1571.26,5.90551
1574.32,5.90551
1577.38,5.90551
1580.43,5.90551
1583.49,5.90551
1586.55,5.90551
1589.61,5.90551
1592.67,5.90551
1595.73,5.90551
1598.79,5.90551
1601.85,5.90551
1604.91,5.90551
1607.97,5.90551
1611.03,5.90551
1614.09,5.90551
1617.15,5.90551
1620.21,5.90551
1623.27,5.90551
1626.33,5.90551
1629.39,5.90551
1632.45,5.90551
1635.51,5.90551
1638.57,5.90551
1641.63,5.90551
1644.69,5.90551
1647.75,5.90551
1650.81,5.90551
1653.86,5.90551
1656.92,5.90551
1659.98,5.90551
1663.04,5.90551
1666.1,5.90551
1669.16,5.90551
1672.22,5.90551
1675.28,5.90551
1678.34,5.90551
1681.4,5.90551
1684.46,5.90551
1687.52,5.90551
1690.58,5.90551
1693.64,5.90551
1696.7,5.90551
1699.76,5.90551
1702.82,5.90551
1705.88,5.90551
1708.94,5.90551
1712,5.90551
1715.06,5.90551
1718.12,5.90551
1721.18,5.90551
1724.24,5.90551
1727.29,5.90551
1730.35,5.90551
1733.41,5.90551
1736.47,5.90551
1739.53,5.90551
1742.59,5.90551
1745.65,5.90551
1748.71,5.90551
1751.77,5.90551
1754.83,5.90551
1757.89,5.90551
1760.95,5.90551
1764.01,5.90551
1767.07,5.90551
1770.13,5.90551
1773.19,5.90551
1776.25,5.90551
1779.31,5.90551
1782.37,5.90551
1785.43,5.90551
1788.49,5.90551
1791.55,5.90551
1794.61,5.90551
1797.67,5.90551
1800.72,5.90551
1803.78,5.90551
1806.84,5.90551
1809.9,5.90551
1812.96,5.90551
1816.02,5.90551
1819.08,5.90551
1822.14,5.90551
1825.2,5.90551
1828.26,5.90551
1831.32,5.90551
1834.38,5.90551
1837.44,5.90551
1840.5,5.90551
1843.56,5.90551
1846.62,5.90551
1849.68,5.90551
1852.74,5.90551
1855.8,5.90551
1858.86,5.90551
1861.92,5.90551
1864.98,5.90551
1868.04,5.90551
1871.1,5.90551
1874.15,5.90551
1877.21,5.90551
1880.27,5.90551
1883.33,5.90551
1886.39,5.90551
1889.45,5.90551
1892.51,5.90551
1895.57,5.90551
1898.63,5.90551
1901.69,5.90551
1904.75,5.90551
1907.81,5.90551
1910.87,5.90551
1913.93,5.90551
1916.99,5.90551
1920.05,5.90551
1923.11,5.90551
1926.17,5.90551
1929.23,5.90551
1932.29,5.90551
1935.35,5.90551
1938.41,5.90551
1941.47,5.90551
1944.52,5.90551
1947.58,5.90551
1950.64,5.90551
1953.7,5.90551
1956.76,5.90551
1959.82,5.90551
1962.88,5.90551
1965.94,5.90551
1969,5.90551
1972.06,5.90551
1975.12,5.90551
1978.18,5.90551
1981.24,5.90551
1984.3,5.90551
1987.36,5.90551
1990.42,5.90551
1993.48,5.90551
1996.54,5.90551
1999.6,5.90551
2002.66,5.90551
2005.72,5.90551
2008.78,5.90551
2011.84,5.90551
2014.9,5.90551
2017.95,5.90551
2021.01,5.90551
2024.07,5.90551
2027.13,5.90551
2030.19,5.90551
2033.25,5.90551
2036.31,5.90551
2039.37,5.90551
2042.43,5.90551
2045.49,5.90551
2048.55,5.90551
2051.61,5.90551
2054.67,5.90551
2057.73,5.90551
2060.79,5.90551
2063.85,5.90551
2066.91,5.90551
2069.97,5.90551
2073.03,5.90551
2076.09,5.90551
2079.15,5.90551
2082.21,5.90551
2085.27,5.90551
2088.33,5.90551
2091.38,5.90551
2094.44,5.90551
2097.5,5.90551
2100.56,5.90551
2103.62,5.90551
2106.68,5.90551
2109.74,5.90551
2112.8,5.90551
2115.86,5.90551
2118.92,5.90551
2121.98,5.90551
2125.04,5.90551
2128.1,5.90551
2131.16,5.90551
2134.22,5.90551
2137.28,5.90551
2140.34,5.90551
2143.4,5.90551
2146.46,5.90551
2149.52,5.90551
2152.58,5.90551
2155.64,5.90551
2158.7,5.90551
2161.76,5.90551
2164.81,5.90551
2167.87,5.90551
2170.93,5.90551
2173.99,5.90551
2177.05,5.90551
2180.11,5.90551
2183.17,5.90551
2186.23,5.90551
2189.29,5.90551
2192.35,5.90551
2195.41,5.90551
2198.47,5.90551
2201.53,5.90551
2204.59,5.90551
2207.65,5.90551
2210.71,5.90551
2213.77,5.90551
2216.83,5.90551
2219.89,5.90551
2222.95,5.90551
2226.01,5.90551
2229.07,5.90551
2232.13,5.90551
2235.19,5.90551
2238.24,5.90551
2241.3,5.90551
2244.36,5.90551
2247.42,5.90551
2250.48,5.90551
2253.54,5.90551
2256.6,5.90551
2259.66,5.90551
2262.72,5.90551
2265.78,5.90551
2268.84,5.90551
2271.9,5.90551
2274.96,5.90551
2278.02,5.90551
2281.08,5.90551
2284.14,5.90551
2287.2,5.90551
2290.26,5.90551
2293.32,5.90551
