,GP550R
RamanShit,Intensity
253.618,101.27
257.328,84.7619
261.039,84.7619
264.75,76.5079
268.46,60
272.171,60
275.881,51.746
279.592,35.2381
283.302,43.4921
287.013,43.4921
290.724,51.746
294.434,51.746
298.145,60
301.855,68.254
305.566,101.27
309.276,134.286
312.987,167.302
316.698,208.571
320.408,299.365
324.119,373.651
327.829,406.667
331.54,456.19
335.25,464.444
338.961,480.952
342.672,464.444
346.382,464.444
350.093,456.19
353.803,456.19
357.514,447.937
361.224,456.19
364.935,456.19
368.646,472.698
372.356,456.19
376.067,431.429
379.777,406.667
383.488,406.667
387.199,398.413
390.909,398.413
394.62,390.159
398.33,373.651
402.041,357.143
405.751,357.143
409.462,332.381
413.173,249.841
416.883,142.54
420.594,68.254
424.304,35.2381
428.015,26.9841
431.725,26.9841
435.436,18.7302
439.147,26.9841
442.857,26.9841
446.568,26.9841
450.278,26.9841
453.989,26.9841
457.699,26.9841
461.41,26.9841
465.121,26.9841
468.831,26.9841
472.542,26.9841
476.252,35.2381
479.963,43.4921
483.673,43.4921
487.384,51.746
491.095,60
494.805,76.5079
498.516,93.0159
502.226,109.524
505.937,134.286
509.647,117.778
513.358,117.778
517.069,117.778
520.779,117.778
524.49,126.032
528.2,142.54
531.911,159.048
535.622,183.81
539.332,208.571
543.043,225.079
546.753,241.587
550.464,274.603
554.174,258.095
557.885,241.587
561.596,225.079
565.306,183.81
569.017,159.048
572.727,150.794
576.438,134.286
580.148,109.524
583.859,101.27
587.57,101.27
591.28,93.0159
594.991,76.5079
598.701,68.254
602.412,51.746
606.122,43.4921
609.833,35.2381
613.544,35.2381
617.254,35.2381
620.965,43.4921
624.675,51.746
628.386,60
632.096,68.254
635.807,76.5079
639.518,93.0159
643.228,109.524
646.939,142.54
650.649,225.079
654.36,299.365
658.071,381.905
661.781,695.556
665.492,1083.49
669.202,1240.32
672.913,1801.59
676.623,1232.06
680.334,1223.81
684.045,967.937
687.755,571.746
691.466,357.143
695.176,225.079
698.887,134.286
702.597,109.524
706.308,101.27
710.019,84.7619
713.729,68.254
717.44,60
721.15,60
724.861,60
728.571,60
732.282,60
735.993,51.746
739.703,43.4921
743.414,43.4921
747.124,43.4921
750.835,35.2381
754.545,35.2381
758.256,26.9841
761.967,26.9841
765.677,26.9841
769.388,26.9841
773.098,26.9841
776.809,26.9841
780.519,26.9841
784.23,26.9841
787.941,26.9841
791.651,26.9841
795.362,26.9841
799.072,26.9841
802.783,26.9841
806.494,26.9841
810.204,26.9841
813.915,84.7619
817.625,60
821.336,43.4921
825.046,35.2381
828.757,35.2381
832.468,35.2381
836.178,35.2381
839.889,35.2381
843.599,35.2381
847.31,35.2381
851.02,35.2381
854.731,35.2381
858.442,35.2381
862.152,35.2381
865.863,43.4921
869.573,43.4921
873.284,51.746
876.994,51.746
880.705,60
884.416,68.254
888.126,84.7619
891.837,84.7619
895.547,84.7619
899.258,84.7619
902.968,84.7619
906.679,84.7619
910.39,84.7619
914.1,84.7619
917.811,84.7619
921.521,76.5079
925.232,51.746
928.942,51.746
932.653,43.4921
936.364,43.4921
940.074,35.2381
943.785,26.9841
947.495,26.9841
951.206,26.9841
954.917,35.2381
958.627,35.2381
962.338,35.2381
966.048,35.2381
969.759,43.4921
973.469,76.5079
977.18,117.778
980.891,142.54
984.601,175.556
988.312,233.333
992.022,373.651
995.733,522.222
999.443,670.794
1003.15,802.857
1006.86,852.381
1010.58,860.635
1014.29,918.413
1018,984.444
1021.71,827.619
1025.42,712.063
1029.13,530.476
1032.84,357.143
1036.55,274.603
1040.26,249.841
1043.97,192.063
1047.68,117.778
1051.39,84.7619
1055.1,84.7619
1058.81,84.7619
1062.52,84.7619
1066.23,76.5079
1069.94,68.254
1073.65,159.048
1077.37,109.524
1081.08,35.2381
1084.79,35.2381
1088.5,26.9841
1092.21,26.9841
1095.92,26.9841
1099.63,26.9841
1103.34,26.9841
1107.05,26.9841
1110.76,35.2381
1114.47,35.2381
1118.18,35.2381
1121.89,35.2381
1125.6,35.2381
1129.31,35.2381
1133.02,35.2381
1136.73,35.2381
1140.45,43.4921
1144.16,35.2381
1147.87,35.2381
1151.58,35.2381
1155.29,35.2381
1159,35.2381
1162.71,43.4921
1166.42,43.4921
1170.13,43.4921
1173.84,51.746
1177.55,51.746
1181.26,51.746
1184.97,51.746
1188.68,51.746
1192.39,51.746
1196.1,43.4921
1199.81,43.4921
1203.53,43.4921
1207.24,43.4921
1210.95,43.4921
1214.66,43.4921
1218.37,43.4921
1222.08,43.4921
1225.79,43.4921
1229.5,35.2381
1233.21,35.2381
1236.92,35.2381
1240.63,35.2381
1244.34,35.2381
1248.05,43.4921
1251.76,51.746
1255.47,76.5079
1259.18,84.7619
1262.89,93.0159
1266.6,109.524
1270.32,117.778
1274.03,126.032
1277.74,134.286
1281.45,159.048
1285.16,183.81
1288.87,216.825
1292.58,274.603
1296.29,324.127
1300,373.651
1303.71,423.175
1307.42,431.429
1311.13,447.937
1314.84,423.175
1318.55,406.667
1322.26,381.905
1325.97,340.635
1329.68,274.603
1333.4,225.079
1337.11,208.571
1340.82,175.556
1344.53,150.794
1348.24,134.286
1351.95,126.032
1355.66,117.778
1359.37,117.778
1363.08,109.524
1366.79,101.27
1370.5,93.0159
1374.21,93.0159
1377.92,84.7619
1381.63,76.5079
1385.34,68.254
1389.05,51.746
1392.76,51.746
1396.47,51.746
1400.19,51.746
1403.9,51.746
1407.61,51.746
1411.32,51.746
1415.03,68.254
1418.74,51.746
1422.45,51.746
1426.16,51.746
1429.87,51.746
1433.58,51.746
1437.29,76.5079
1441,51.746
1444.71,51.746
1448.42,51.746
1452.13,43.4921
1455.84,43.4921
1459.55,51.746
1463.27,51.746
1466.98,51.746
1470.69,51.746
1474.4,51.746
1478.11,51.746
1481.82,35.2381
1485.53,76.5079
1489.24,68.254
1492.95,60
1496.66,60
1500.37,60
1504.08,60
1507.79,60
1511.5,51.746
1515.21,60
1518.92,60
1522.63,76.5079
1526.35,84.7619
1530.06,84.7619
1533.77,93.0159
1537.48,109.524
1541.19,134.286
1544.9,142.54
1548.61,150.794
1552.32,249.841
1556.03,142.54
1559.74,126.032
1563.45,126.032
1567.16,93.0159
1570.87,68.254
1574.58,68.254
1578.29,60
1582,43.4921
1585.71,35.2381
1589.42,35.2381
1593.14,35.2381
1596.85,35.2381
1600.56,35.2381
1604.27,35.2381
1607.98,93.0159
1611.69,51.746
1615.4,35.2381
1619.11,43.4921
1622.82,43.4921
1626.53,35.2381
1630.24,35.2381
1633.95,35.2381
1637.66,35.2381
1641.37,43.4921
1645.08,43.4921
1648.79,43.4921
1652.5,51.746
1656.22,51.746
1659.93,68.254
1663.64,93.0159
1667.35,93.0159
1671.06,93.0159
1674.77,93.0159
1678.48,93.0159
1682.19,93.0159
1685.9,93.0159
1689.61,142.54
1693.32,126.032
1697.03,101.27
1700.74,76.5079
1704.45,68.254
1708.16,68.254
1711.87,68.254
1715.58,68.254
1719.29,51.746
1723.01,51.746
1726.72,76.5079
1730.43,51.746
1734.14,51.746
1737.85,51.746
1741.56,51.746
1745.27,43.4921
1748.98,51.746
1752.69,51.746
1756.4,51.746
1760.11,101.27
1763.82,84.7619
1767.53,76.5079
1771.24,68.254
1774.95,68.254
1778.66,68.254
1782.37,68.254
1786.09,68.254
1789.8,76.5079
1793.51,93.0159
1797.22,117.778
1800.93,84.7619
1804.64,84.7619
1808.35,84.7619
1812.06,84.7619
1815.77,84.7619
1819.48,84.7619
1823.19,84.7619
1826.9,84.7619
1830.61,84.7619
1834.32,93.0159
1838.03,93.0159
1841.74,126.032
1845.45,93.0159
1849.17,93.0159
1852.88,93.0159
1856.59,76.5079
1860.3,93.0159
1864.01,84.7619
1867.72,84.7619
1871.43,84.7619
1875.14,84.7619
1878.85,84.7619
1882.56,84.7619
1886.27,84.7619
1889.98,84.7619
1893.69,84.7619
1897.4,134.286
1901.11,167.302
1904.82,117.778
1908.53,117.778
1912.24,117.778
1915.96,117.778
1919.67,117.778
1923.38,117.778
1927.09,117.778
1930.8,117.778
1934.51,117.778
1938.22,142.54
1941.93,84.7619
1945.64,68.254
1949.35,60
1953.06,51.746
1956.77,51.746
1960.48,51.746
1964.19,43.4921
1967.9,101.27
1971.61,43.4921
1975.32,43.4921
1979.04,43.4921
1982.75,35.2381
1986.46,43.4921
1990.17,43.4921
1993.88,126.032
1997.59,101.27
2001.3,84.7619
2005.01,68.254
2008.72,43.4921
2012.43,68.254
2016.14,68.254
2019.85,68.254
2023.56,68.254
2027.27,76.5079
2030.98,93.0159
2034.69,101.27
2038.4,109.524
2042.12,109.524
2045.83,109.524
2049.54,126.032
2053.25,159.048
2056.96,192.063
2060.67,109.524
2064.38,109.524
2068.09,109.524
2071.8,109.524
2075.51,109.524
2079.22,109.524
2082.93,101.27
2086.64,101.27
2090.35,101.27
2094.06,101.27
2097.77,101.27
2101.48,101.27
2105.19,101.27
2108.91,101.27
2112.62,93.0159
2116.33,101.27
2120.04,109.524
2123.75,109.524
2127.46,117.778
2131.17,126.032
2134.88,126.032
2138.59,134.286
2142.3,134.286
2146.01,150.794
2149.72,167.302
2153.43,175.556
2157.14,175.556
2160.85,175.556
2164.56,200.317
2168.27,192.063
2171.99,183.81
2175.7,183.81
2179.41,175.556
2183.12,150.794
2186.83,126.032
2190.54,117.778
2194.25,84.7619
2197.96,109.524
2201.67,117.778
2205.38,126.032
2209.09,134.286
2212.8,159.048
2216.51,93.0159
2220.22,93.0159
2223.93,93.0159
2227.64,93.0159
2231.35,93.0159
2235.06,76.5079
2238.78,93.0159
2242.49,93.0159
2246.2,101.27
2249.91,101.27
2253.62,117.778
2257.33,117.778
2261.04,126.032
2264.75,208.571
2268.46,183.81
2272.17,175.556
2275.88,167.302
2279.59,159.048
2283.3,167.302
2287.01,175.556
2290.72,200.317
2294.43,109.524
2298.14,109.524
2301.86,109.524
2305.57,101.27
2309.28,93.0159
2312.99,93.0159
2316.7,84.7619
2320.41,101.27
2324.12,109.524
2327.83,117.778
2331.54,274.603
