,GP550R
RamanShit,Intensity
260.084,160
263.277,320
266.471,320
269.664,320
272.857,320
276.05,320
279.244,320
282.437,320
285.63,320
288.824,480
292.017,480
295.21,480
298.403,480
301.597,640
304.79,480
307.983,480
311.176,480
314.37,320
317.563,320
320.756,320
323.95,320
327.143,320
330.336,320
333.529,320
336.723,160
339.916,160
343.109,160
346.303,160
349.496,160
352.689,160
355.882,160
359.076,160
362.269,160
365.462,160
368.655,160
371.849,160
375.042,320
378.235,320
381.429,320
384.622,640
387.815,800
391.008,800
394.202,800
397.395,960
400.588,960
403.782,1120
406.975,1440
410.168,1760
413.361,2240
416.555,3040
419.748,3520
422.941,3680
426.134,3680
429.328,3520
432.521,3520
435.714,3360
438.908,3040
442.101,2880
445.294,2720
448.487,2400
451.681,2080
454.874,1920
458.067,1600
461.261,1280
464.454,960
467.647,800
470.84,800
474.034,480
477.227,320
480.42,320
483.613,160
486.807,160
490,160
493.193,160
496.387,160
499.58,160
502.773,160
505.966,320
509.16,320
512.353,320
515.546,320
518.739,480
521.933,480
525.126,480
528.319,480
531.513,640
534.706,640
537.899,640
541.092,800
544.286,800
547.479,800
550.672,800
553.866,960
557.059,1120
560.252,1280
563.445,1280
566.639,1760
569.832,2240
573.025,2720
576.218,2880
579.412,3040
582.605,3040
585.798,3040
588.992,2880
592.185,2880
595.378,2560
598.571,2080
601.765,1920
604.958,1920
608.151,1920
611.345,1600
614.538,1440
617.731,1120
620.924,800
624.118,480
627.311,320
630.504,320
633.697,160
636.891,160
640.084,160
643.277,160
646.471,160
649.664,160
652.857,160
656.05,160
659.244,160
662.437,160
665.63,320
668.824,320
672.017,320
675.21,320
678.403,320
681.597,320
684.79,320
687.983,320
691.176,320
694.37,320
697.563,320
700.756,320
703.95,320
707.143,320
710.336,320
713.529,320
716.723,320
719.916,320
723.109,320
726.303,320
729.496,320
732.689,160
735.882,160
739.076,160
742.269,320
745.462,320
748.655,320
751.849,320
755.042,480
758.235,480
761.429,480
764.622,320
767.815,320
771.008,320
774.202,320
777.395,320
780.588,320
783.782,320
786.975,320
790.168,160
793.361,160
796.555,160
799.748,160
802.941,160
806.134,320
809.328,480
812.521,480
815.714,480
818.908,480
822.101,480
825.294,480
828.487,480
831.681,480
834.874,480
838.067,640
841.261,800
844.454,960
847.647,960
850.84,1120
854.034,1120
857.227,1120
860.42,1120
863.613,1120
866.807,960
870,960
873.193,960
876.387,960
879.58,800
882.773,800
885.966,480
889.16,480
892.353,320
895.546,320
898.739,160
901.933,160
905.126,480
908.319,640
911.513,800
914.706,1120
917.899,1280
921.092,1280
924.286,1600
927.479,1760
930.672,2240
933.866,3040
937.059,4000
940.252,5120
943.445,7360
946.639,10880
949.832,12960
953.025,13120
956.218,22720
959.412,25600
962.605,13120
965.798,12960
968.992,9280
972.185,5600
975.378,3520
978.571,1120
981.765,800
984.958,640
988.151,480
991.345,480
994.538,480
997.731,640
1000.92,800
1004.12,960
1007.31,960
1010.5,960
1013.7,960
1016.89,1120
1020.08,1280
1023.28,1440
1026.47,1760
1029.66,1920
1032.86,2080
1036.05,2080
1039.24,2080
1042.44,2080
1045.63,2080
1048.82,2240
1052.02,2240
1055.21,2400
1058.4,2560
1061.6,3040
1064.79,3360
1067.98,3520
1071.18,4000
1074.37,3360
1077.56,3040
1080.76,2560
1083.95,2080
1087.14,1600
1090.34,1280
1093.53,1120
1096.72,960
1099.92,960
1103.11,800
1106.3,800
1109.5,480
1112.69,320
1115.88,160
1119.08,160
1122.27,160
1125.46,160
1128.66,160
1131.85,160
1135.04,160
1138.24,160
1141.43,160
1144.62,320
1147.82,320
1151.01,320
1154.2,320
1157.39,320
1160.59,480
1163.78,480
1166.97,480
1170.17,480
1173.36,480
1176.55,480
1179.75,320
1182.94,320
1186.13,320
1189.33,160
1192.52,160
1195.71,160
1198.91,160
1202.1,160
1205.29,160
1208.49,160
1211.68,160
1214.87,160
1218.07,320
1221.26,320
1224.45,480
1227.65,800
1230.84,1120
1234.03,1280
1237.23,1600
1240.42,1760
1243.61,1760
1246.81,1760
1250,1760
1253.19,1760
1256.39,1760
1259.58,1760
1262.77,1760
1265.97,1760
1269.16,1760
1272.35,1760
1275.55,1760
1278.74,1600
1281.93,1440
1285.13,1280
1288.32,1120
1291.51,960
1294.71,960
1297.9,800
1301.09,800
1304.29,800
1307.48,800
1310.67,800
1313.87,800
1317.06,800
1320.25,800
1323.45,800
1326.64,640
1329.83,640
1333.03,640
1336.22,640
1339.41,640
1342.61,480
1345.8,480
1348.99,480
1352.18,480
1355.38,320
1358.57,160
1361.76,160
1364.96,160
1368.15,320
1371.34,480
1374.54,480
1377.73,640
1380.92,800
1384.12,800
1387.31,800
1390.5,800
1393.7,800
1396.89,800
1400.08,800
1403.28,800
1406.47,960
1409.66,960
1412.86,1120
1416.05,1280
1419.24,1280
1422.44,1280
1425.63,1280
1428.82,1280
1432.02,1440
1435.21,1600
1438.4,1920
1441.6,2240
1444.79,2560
1447.98,2720
1451.18,2880
1454.37,2720
1457.56,2720
1460.76,2560
1463.95,2400
1467.14,2080
1470.34,1760
1473.53,1600
1476.72,960
1479.92,800
1483.11,640
1486.3,480
1489.5,320
1492.69,160
1495.88,160
1499.08,160
1502.27,160
1505.46,160
1508.66,160
1511.85,160
1515.04,160
1518.24,160
1521.43,160
1524.62,160
1527.82,160
1531.01,160
1534.2,160
1537.39,160
1540.59,160
1543.78,160
1546.97,160
1550.17,160
1553.36,160
1556.55,160
1559.75,160
1562.94,160
1566.13,160
1569.33,160
1572.52,160
1575.71,160
1578.91,160
1582.1,160
1585.29,160
1588.49,160
1591.68,160
1594.87,160
1598.07,160
1601.26,320
1604.45,480
1607.65,480
1610.84,480
1614.03,480
1617.23,640
1620.42,800
1623.61,960
1626.81,1120
1630,1280
1633.19,1600
1636.39,1760
1639.58,1760
1642.77,1760
1645.97,1760
1649.16,1760
1652.35,1920
1655.55,2080
1658.74,2240
1661.93,2400
1665.13,2400
1668.32,2560
1671.51,2400
1674.71,2400
1677.9,2400
1681.09,2080
1684.29,1920
1687.48,1760
1690.67,1440
1693.87,1120
1697.06,800
1700.25,800
1703.45,480
1706.64,320
1709.83,160
1713.03,160
1716.22,160
1719.41,160
1722.61,160
1725.8,160
1728.99,160
1732.18,160
1735.38,160
1738.57,160
1741.76,160
1744.96,160
1748.15,160
1751.34,160
1754.54,160
1757.73,160
1760.92,160
1764.12,160
1767.31,160
1770.5,160
1773.7,160
1776.89,160
1780.08,160
1783.28,160
1786.47,160
1789.66,160
1792.86,160
1796.05,160
1799.24,160
1802.44,160
1805.63,160
1808.82,160
1812.02,160
1815.21,160
1818.4,160
1821.6,160
1824.79,160
1827.98,160
1831.18,160
1834.37,160
1837.56,160
1840.76,160
1843.95,160
1847.14,160
1850.34,160
1853.53,160
1856.72,160
1859.92,160
1863.11,160
1866.3,160
1869.5,160
1872.69,160
1875.88,160
1879.08,160
1882.27,160
1885.46,160
1888.66,160
1891.85,160
1895.04,160
1898.24,160
1901.43,160
1904.62,160
1907.82,160
1911.01,160
1914.2,160
1917.39,160
1920.59,160
1923.78,160
1926.97,160
1930.17,160
1933.36,160
1936.55,160
1939.75,160
1942.94,160
1946.13,160
1949.33,160
1952.52,160
1955.71,160
1958.91,160
1962.1,160
1965.29,160
1968.49,160
1971.68,160
1974.87,160
1978.07,160
1981.26,160
1984.45,160
1987.65,160
1990.84,160
1994.03,160
1997.23,160
2000.42,160
2003.61,160
2006.81,160
2010,160
2013.19,160
2016.39,160
2019.58,160
2022.77,160
2025.97,160
2029.16,160
2032.35,160
2035.55,160
2038.74,160
2041.93,160
2045.13,160
2048.32,160
2051.51,160
2054.71,160
2057.9,160
2061.09,160
2064.29,160
2067.48,160
2070.67,160
2073.87,160
2077.06,160
2080.25,160
2083.45,160
2086.64,160
2089.83,160
2093.03,160
2096.22,160
2099.41,160
2102.61,160
2105.8,160
2108.99,160
2112.18,160
2115.38,160
2118.57,160
2121.76,160
2124.96,160
2128.15,160
2131.34,160
2134.54,160
2137.73,160
2140.92,160
2144.12,160
2147.31,160
2150.5,160
2153.7,160
2156.89,160
2160.08,160
2163.28,160
2166.47,160
2169.66,160
2172.86,160
2176.05,160
2179.24,160
2182.44,160
2185.63,160
2188.82,160
2192.02,160
2195.21,160
2198.4,160
2201.6,160
2204.79,160
2207.98,160
2211.18,160
2214.37,160
2217.56,160
2220.76,160
2223.95,160
2227.14,160
2230.34,160
2233.53,160
2236.72,160
2239.92,160
2243.11,160
2246.3,160
2249.5,160
2252.69,160
2255.88,160
2259.08,160
2262.27,160
2265.46,160
2268.66,160
2271.85,160
2275.04,160
2278.24,160
2281.43,160
2284.62,160
2287.82,160
