,GP550R
RamanShit,Intensity
263.828,11.5132
267.635,11.5132
271.443,11.5132
275.251,27.9605
279.058,27.9605
282.866,27.9605
286.673,27.9605
290.481,27.9605
294.289,44.4079
298.096,60.8553
301.904,60.8553
305.711,60.8553
309.519,60.8553
313.327,110.197
317.134,159.539
320.942,225.329
324.749,340.461
328.557,570.724
332.365,718.75
336.172,866.776
339.98,1129.93
343.788,1458.88
347.595,1689.14
351.403,1935.86
355.21,2182.57
359.018,2199.01
362.826,3169.41
366.633,2889.8
370.441,1952.3
374.248,1705.59
378.056,1245.07
381.864,587.171
385.671,373.355
389.479,307.566
393.287,241.776
397.094,225.329
400.902,208.882
404.709,192.434
408.517,192.434
412.325,208.882
416.132,208.882
419.94,225.329
423.747,225.329
427.555,241.776
431.363,291.118
435.17,389.803
438.978,455.592
442.786,472.039
446.593,521.382
450.401,620.066
454.208,472.039
458.016,373.355
461.824,208.882
465.631,77.3026
469.439,27.9605
473.246,27.9605
477.054,11.5132
480.862,11.5132
484.669,27.9605
488.477,27.9605
492.285,60.8553
496.092,93.75
499.9,126.645
503.707,143.092
507.515,208.882
511.323,241.776
515.13,258.224
518.938,274.671
522.745,274.671
526.553,258.224
530.361,208.882
534.168,126.645
537.976,77.3026
541.784,77.3026
545.591,44.4079
549.399,27.9605
553.206,27.9605
557.014,27.9605
560.822,11.5132
564.629,11.5132
568.437,11.5132
572.244,11.5132
576.052,44.4079
579.86,77.3026
583.667,126.645
587.475,208.882
591.283,274.671
595.09,324.013
598.898,340.461
602.705,389.803
606.513,455.592
610.321,488.487
614.128,587.171
617.936,669.408
621.743,702.303
625.551,751.645
629.359,784.539
633.166,800.987
636.974,800.987
640.782,800.987
644.589,817.434
648.397,817.434
652.204,850.329
656.012,1097.04
659.82,1327.3
663.627,1623.36
667.435,1919.41
671.242,2527.96
675.05,2199.01
678.858,1902.96
682.665,1689.14
686.473,1245.07
690.281,1014.8
694.088,866.776
697.896,636.513
701.703,537.829
705.511,472.039
709.319,324.013
713.126,159.539
716.934,77.3026
720.741,60.8553
724.549,27.9605
728.357,11.5132
732.164,11.5132
735.972,11.5132
739.78,27.9605
743.587,27.9605
747.395,44.4079
751.202,44.4079
755.01,44.4079
758.818,44.4079
762.625,44.4079
766.433,44.4079
770.24,44.4079
774.048,44.4079
777.856,27.9605
781.663,27.9605
785.471,27.9605
789.279,27.9605
793.086,11.5132
796.894,11.5132
800.701,11.5132
804.509,11.5132
808.317,11.5132
812.124,27.9605
815.932,27.9605
819.739,27.9605
823.547,27.9605
827.355,27.9605
831.162,27.9605
834.97,27.9605
838.778,44.4079
842.585,44.4079
846.393,44.4079
850.2,44.4079
854.008,44.4079
857.816,44.4079
861.623,44.4079
865.431,44.4079
869.238,27.9605
873.046,27.9605
876.854,27.9605
880.661,27.9605
884.469,27.9605
888.277,11.5132
892.084,27.9605
895.892,27.9605
899.699,27.9605
903.507,27.9605
907.315,27.9605
911.122,27.9605
914.93,27.9605
918.737,27.9605
922.545,27.9605
926.353,27.9605
930.16,11.5132
933.968,11.5132
937.776,11.5132
941.583,27.9605
945.391,44.4079
949.198,44.4079
953.006,60.8553
956.814,77.3026
960.621,44.4079
964.429,44.4079
968.236,44.4079
972.044,44.4079
975.852,44.4079
979.659,44.4079
983.467,44.4079
987.275,60.8553
991.082,60.8553
994.89,60.8553
998.697,77.3026
1002.51,77.3026
1006.31,77.3026
1010.12,77.3026
1013.93,126.645
1017.74,175.987
1021.54,241.776
1025.35,439.145
1029.16,603.618
1032.97,620.066
1036.77,1327.3
1040.58,1179.28
1044.39,620.066
1048.2,455.592
1052,225.329
1055.81,143.092
1059.62,126.645
1063.43,126.645
1067.23,126.645
1071.04,126.645
1074.85,110.197
1078.66,93.75
1082.46,77.3026
1086.27,77.3026
1090.08,77.3026
1093.89,60.8553
1097.7,60.8553
1101.5,60.8553
1105.31,60.8553
1109.12,60.8553
1112.93,44.4079
1116.73,44.4079
1120.54,27.9605
1124.35,11.5132
1128.16,11.5132
1131.96,11.5132
1135.77,11.5132
1139.58,27.9605
1143.39,27.9605
1147.19,27.9605
1151,27.9605
1154.81,27.9605
1158.62,27.9605
1162.42,27.9605
1166.23,27.9605
1170.04,27.9605
1173.85,27.9605
1177.66,27.9605
1181.46,27.9605
1185.27,27.9605
1189.08,27.9605
1192.89,27.9605
1196.69,27.9605
1200.5,27.9605
1204.31,27.9605
1208.12,27.9605
1211.92,27.9605
1215.73,27.9605
1219.54,27.9605
1223.35,27.9605
1227.15,27.9605
1230.96,27.9605
1234.77,11.5132
1238.58,11.5132
1242.38,11.5132
1246.19,44.4079
1250,60.8553
1253.81,60.8553
1257.62,60.8553
1261.42,60.8553
1265.23,60.8553
1269.04,60.8553
1272.85,77.3026
1276.65,77.3026
1280.46,93.75
1284.27,93.75
1288.08,93.75
1291.88,93.75
1295.69,110.197
1299.5,110.197
1303.31,110.197
1307.11,110.197
1310.92,110.197
1314.73,110.197
1318.54,110.197
1322.34,93.75
1326.15,93.75
1329.96,93.75
1333.77,93.75
1337.58,93.75
1341.38,77.3026
1345.19,77.3026
1349,60.8553
1352.81,60.8553
1356.61,60.8553
1360.42,60.8553
1364.23,60.8553
1368.04,60.8553
1371.84,60.8553
1375.65,60.8553
1379.46,60.8553
1383.27,60.8553
1387.07,60.8553
1390.88,60.8553
1394.69,44.4079
1398.5,44.4079
1402.3,44.4079
1406.11,44.4079
1409.92,44.4079
1413.73,44.4079
1417.54,44.4079
1421.34,44.4079
1425.15,27.9605
1428.96,27.9605
1432.77,27.9605
1436.57,27.9605
1440.38,27.9605
1444.19,27.9605
1448,27.9605
1451.8,27.9605
1455.61,44.4079
1459.42,44.4079
1463.23,44.4079
1467.03,44.4079
1470.84,44.4079
1474.65,44.4079
1478.46,44.4079
1482.26,44.4079
1486.07,44.4079
1489.88,44.4079
1493.69,44.4079
1497.49,44.4079
1501.3,44.4079
1505.11,44.4079
1508.92,44.4079
1512.73,60.8553
1516.53,60.8553
1520.34,60.8553
1524.15,60.8553
1527.96,60.8553
1531.76,60.8553
1535.57,60.8553
1539.38,60.8553
1543.19,60.8553
1546.99,60.8553
1550.8,60.8553
1554.61,60.8553
1558.42,60.8553
1562.22,60.8553
1566.03,44.4079
1569.84,44.4079
1573.65,27.9605
1577.45,27.9605
1581.26,27.9605
1585.07,27.9605
1588.88,27.9605
1592.69,27.9605
1596.49,27.9605
1600.3,27.9605
1604.11,27.9605
1607.92,27.9605
1611.72,27.9605
1615.53,27.9605
1619.34,27.9605
1623.15,27.9605
1626.95,44.4079
1630.76,44.4079
1634.57,60.8553
1638.38,60.8553
1642.18,60.8553
1645.99,60.8553
1649.8,60.8553
1653.61,60.8553
1657.41,60.8553
1661.22,60.8553
1665.03,60.8553
1668.84,60.8553
1672.65,60.8553
1676.45,44.4079
1680.26,44.4079
1684.07,44.4079
1687.88,44.4079
1691.68,44.4079
1695.49,27.9605
1699.3,27.9605
1703.11,27.9605
1706.91,27.9605
1710.72,27.9605
1714.53,27.9605
1718.34,27.9605
1722.14,27.9605
1725.95,11.5132
1729.76,11.5132
1733.57,27.9605
1737.37,44.4079
1741.18,44.4079
1744.99,60.8553
1748.8,60.8553
1752.61,60.8553
1756.41,60.8553
1760.22,60.8553
1764.03,60.8553
1767.84,60.8553
1771.64,60.8553
1775.45,60.8553
1779.26,93.75
1783.07,60.8553
1786.87,60.8553
1790.68,60.8553
1794.49,60.8553
1798.3,44.4079
1802.1,27.9605
1805.91,27.9605
1809.72,27.9605
1813.53,27.9605
1817.33,27.9605
1821.14,27.9605
1824.95,27.9605
1828.76,44.4079
1832.57,44.4079
1836.37,44.4079
1840.18,44.4079
1843.99,27.9605
1847.8,27.9605
1851.6,27.9605
1855.41,27.9605
1859.22,27.9605
1863.03,27.9605
1866.83,27.9605
1870.64,44.4079
1874.45,44.4079
1878.26,44.4079
1882.06,60.8553
1885.87,60.8553
1889.68,60.8553
1893.49,60.8553
1897.29,60.8553
1901.1,60.8553
1904.91,60.8553
1908.72,60.8553
1912.53,60.8553
1916.33,60.8553
1920.14,44.4079
1923.95,44.4079
1927.76,44.4079
1931.56,44.4079
1935.37,44.4079
1939.18,44.4079
1942.99,44.4079
1946.79,27.9605
1950.6,27.9605
1954.41,27.9605
1958.22,27.9605
1962.02,27.9605
1965.83,11.5132
1969.64,27.9605
1973.45,27.9605
1977.25,27.9605
1981.06,27.9605
1984.87,27.9605
1988.68,27.9605
1992.48,27.9605
1996.29,27.9605
2000.1,27.9605
2003.91,27.9605
2007.72,27.9605
2011.52,27.9605
2015.33,27.9605
2019.14,27.9605
2022.95,44.4079
2026.75,44.4079
2030.56,44.4079
2034.37,44.4079
2038.18,27.9605
2041.98,27.9605
2045.79,27.9605
2049.6,27.9605
2053.41,27.9605
2057.21,27.9605
2061.02,11.5132
2064.83,11.5132
2068.64,11.5132
2072.44,11.5132
2076.25,11.5132
2080.06,11.5132
2083.87,11.5132
2087.68,11.5132
2091.48,11.5132
2095.29,27.9605
2099.1,27.9605
2102.91,27.9605
2106.71,27.9605
2110.52,27.9605
2114.33,27.9605
2118.14,27.9605
2121.94,27.9605
2125.75,27.9605
2129.56,27.9605
2133.37,44.4079
2137.17,44.4079
2140.98,44.4079
2144.79,44.4079
2148.6,44.4079
2152.4,44.4079
2156.21,44.4079
2160.02,44.4079
2163.83,44.4079
2167.64,44.4079
2171.44,27.9605
2175.25,27.9605
2179.06,27.9605
2182.87,27.9605
2186.67,27.9605
2190.48,27.9605
2194.29,11.5132
2198.1,27.9605
2201.9,27.9605
2205.71,27.9605
2209.52,27.9605
2213.33,27.9605
2217.13,27.9605
2220.94,27.9605
2224.75,11.5132
2228.56,11.5132
2232.36,27.9605
2236.17,27.9605
2239.98,44.4079
2243.79,44.4079
2247.6,44.4079
2251.4,44.4079
2255.21,44.4079
2259.02,44.4079
2262.83,44.4079
2266.63,44.4079
2270.44,44.4079
2274.25,44.4079
2278.06,44.4079
2281.86,44.4079
2285.67,44.4079
2289.48,44.4079
2293.29,44.4079
2297.09,44.4079
2300.9,27.9605
2304.71,11.5132
2308.52,11.5132
2312.32,11.5132
2316.13,11.5132
2319.94,11.5132
2323.75,11.5132
2327.56,27.9605
