,GP550R
RamanShit,Intensity
258.762,79.0514
261.817,79.0514
264.871,79.0514
267.926,316.206
270.981,553.36
274.035,1027.67
277.09,1976.28
280.145,3162.06
283.199,4110.67
286.254,4110.67
289.309,4110.67
292.363,4110.67
295.418,4110.67
298.473,4347.83
301.527,4584.98
304.582,5770.75
307.637,8616.6
310.691,12885.4
313.746,17628.5
316.801,24031.6
319.855,24743.1
322.91,19051.4
325.965,16917
329.019,12648.2
332.074,9090.91
335.129,6956.52
338.183,6007.91
341.238,6482.21
344.293,6719.37
347.347,7430.83
350.402,8616.6
353.457,8616.6
356.511,8616.6
359.566,8616.6
362.621,8142.29
365.675,6482.21
368.73,3873.52
371.785,2213.44
374.839,1027.67
377.894,553.36
380.949,316.206
384.003,79.0514
387.058,79.0514
390.113,79.0514
393.167,79.0514
396.222,79.0514
399.277,79.0514
402.331,316.206
405.386,316.206
408.441,553.36
411.495,553.36
414.55,316.206
417.605,316.206
420.659,316.206
423.714,79.0514
426.768,79.0514
429.823,79.0514
432.878,79.0514
435.932,79.0514
438.987,79.0514
442.042,79.0514
445.096,79.0514
448.151,79.0514
451.206,79.0514
454.26,79.0514
457.315,79.0514
460.37,79.0514
463.424,79.0514
466.479,79.0514
469.534,79.0514
472.588,79.0514
475.643,79.0514
478.698,79.0514
481.752,79.0514
484.807,79.0514
487.862,79.0514
490.916,79.0514
493.971,79.0514
497.026,79.0514
500.08,79.0514
503.135,79.0514
506.19,79.0514
509.244,79.0514
512.299,79.0514
515.354,79.0514
518.408,79.0514
521.463,79.0514
524.518,79.0514
527.572,79.0514
530.627,79.0514
533.682,79.0514
536.736,79.0514
539.791,79.0514
542.846,79.0514
545.9,79.0514
548.955,79.0514
552.01,79.0514
555.064,316.206
558.119,316.206
561.174,79.0514
564.228,79.0514
567.283,79.0514
570.338,79.0514
573.392,79.0514
576.447,79.0514
579.502,79.0514
582.556,79.0514
585.611,79.0514
588.666,79.0514
591.72,79.0514
594.775,79.0514
597.83,79.0514
600.884,79.0514
603.939,79.0514
606.994,79.0514
610.048,79.0514
613.103,79.0514
616.158,79.0514
619.212,79.0514
622.267,79.0514
625.322,79.0514
628.376,79.0514
631.431,79.0514
634.486,79.0514
637.54,79.0514
640.595,79.0514
643.65,79.0514
646.704,79.0514
649.759,79.0514
652.814,79.0514
655.868,79.0514
658.923,79.0514
661.977,79.0514
665.032,79.0514
668.087,79.0514
671.141,79.0514
674.196,79.0514
677.251,79.0514
680.305,79.0514
683.36,79.0514
686.415,79.0514
689.469,79.0514
692.524,79.0514
695.579,79.0514
698.633,79.0514
701.688,79.0514
704.743,79.0514
707.797,316.206
710.852,553.36
713.907,790.514
716.961,1027.67
720.016,1027.67
723.071,1027.67
726.125,790.514
729.18,553.36
732.235,316.206
735.289,79.0514
738.344,79.0514
741.399,79.0514
744.453,79.0514
747.508,79.0514
750.563,79.0514
753.617,79.0514
756.672,316.206
759.727,553.36
762.781,790.514
765.836,1264.82
768.891,1976.28
771.945,2924.9
775,4110.67
778.055,5770.75
781.109,7430.83
784.164,9090.91
787.219,10276.7
790.273,10513.8
793.328,10513.8
796.383,10751
799.437,10988.1
802.492,12173.9
805.547,14308.3
808.601,16917
811.656,20474.3
814.711,24980.2
817.765,30671.9
820.82,33754.9
823.875,37075.1
826.929,33754.9
829.984,31857.7
833.039,26403.2
836.093,19762.8
839.148,14071.1
842.203,9802.37
845.257,6956.52
848.312,4822.13
851.367,3162.06
854.421,2213.44
857.476,1501.98
860.531,1027.67
863.585,553.36
866.64,316.206
869.695,79.0514
872.749,79.0514
875.804,79.0514
878.859,79.0514
881.913,79.0514
884.968,79.0514
888.023,79.0514
891.077,79.0514
894.132,79.0514
897.186,79.0514
900.241,79.0514
903.296,79.0514
906.35,79.0514
909.405,79.0514
912.46,79.0514
915.514,79.0514
918.569,79.0514
921.624,79.0514
924.678,79.0514
927.733,79.0514
930.788,79.0514
933.842,79.0514
936.897,79.0514
939.952,79.0514
943.006,79.0514
946.061,79.0514
949.116,79.0514
952.17,79.0514
955.225,79.0514
958.28,79.0514
961.334,79.0514
964.389,79.0514
967.444,79.0514
970.498,79.0514
973.553,79.0514
976.608,79.0514
979.662,79.0514
982.717,79.0514
985.772,79.0514
988.826,79.0514
991.881,79.0514
994.936,79.0514
997.99,79.0514
1001.05,79.0514
1004.1,79.0514
1007.15,79.0514
1010.21,79.0514
1013.26,79.0514
1016.32,79.0514
1019.37,79.0514
1022.43,79.0514
1025.48,79.0514
1028.54,79.0514
1031.59,79.0514
1034.65,79.0514
1037.7,79.0514
1040.76,79.0514
1043.81,79.0514
1046.86,79.0514
1049.92,79.0514
1052.97,79.0514
1056.03,79.0514
1059.08,79.0514
1062.14,79.0514
1065.19,79.0514
1068.25,79.0514
1071.3,79.0514
1074.36,79.0514
1077.41,79.0514
1080.47,79.0514
1083.52,79.0514
1086.58,79.0514
1089.63,79.0514
1092.68,79.0514
1095.74,79.0514
1098.79,79.0514
1101.85,79.0514
1104.9,79.0514
1107.96,79.0514
1111.01,79.0514
1114.07,79.0514
1117.12,79.0514
1120.18,79.0514
1123.23,79.0514
1126.29,79.0514
1129.34,79.0514
1132.4,79.0514
1135.45,79.0514
1138.5,79.0514
1141.56,79.0514
1144.61,79.0514
1147.67,79.0514
1150.72,79.0514
1153.78,79.0514
1156.83,79.0514
1159.89,79.0514
1162.94,79.0514
1166,79.0514
1169.05,79.0514
1172.11,79.0514
1175.16,79.0514
1178.22,316.206
1181.27,553.36
1184.32,790.514
1187.38,1027.67
1190.43,1264.82
1193.49,1501.98
1196.54,1739.13
1199.6,1739.13
1202.65,1976.28
1205.71,1976.28
1208.76,2213.44
1211.82,2213.44
1214.87,2213.44
1217.93,2213.44
1220.98,2213.44
1224.04,2213.44
1227.09,2213.44
1230.14,2213.44
1233.2,2213.44
1236.25,2213.44
1239.31,2450.59
1242.36,2450.59
1245.42,2213.44
1248.47,2213.44
1251.53,2213.44
1254.58,2213.44
1257.64,2213.44
1260.69,2213.44
1263.75,1976.28
1266.8,1976.28
1269.86,1976.28
1272.91,1976.28
1275.96,1739.13
1279.02,1739.13
1282.07,1501.98
1285.13,1501.98
1288.18,1264.82
1291.24,1027.67
1294.29,790.514
1297.35,553.36
1300.4,316.206
1303.46,316.206
1306.51,79.0514
1309.57,79.0514
1312.62,79.0514
1315.68,-158.103
1318.73,-158.103
1321.78,-158.103
1324.84,79.0514
1327.89,79.0514
1330.95,316.206
1334,553.36
1337.06,790.514
1340.11,1027.67
1343.17,1501.98
1346.22,1976.28
1349.28,2687.75
1352.33,3399.21
1355.39,4347.83
1358.44,5296.44
1361.5,6245.06
1364.55,7193.68
1367.6,8379.45
1370.66,9565.22
1373.71,10751
1376.77,11699.6
1379.82,12411.1
1382.88,13122.5
1385.93,13596.8
1388.99,13834
1392.04,13834
1395.1,13834
1398.15,13834
1401.21,14071.1
1404.26,14308.3
1407.32,14545.5
1410.37,15019.8
1413.42,15019.8
1416.48,15019.8
1419.53,15019.8
1422.59,15256.9
1425.64,15494.1
1428.7,15256.9
1431.75,14545.5
1434.81,12648.2
1437.86,10039.5
1440.92,7430.83
1443.97,5296.44
1447.03,3636.36
1450.08,2687.75
1453.14,1739.13
1456.19,1027.67
1459.24,553.36
1462.3,316.206
1465.35,79.0514
1468.41,-158.103
1471.46,-158.103
1474.52,-158.103
1477.57,-158.103
1480.63,-158.103
1483.68,-158.103
1486.74,-158.103
1489.79,79.0514
1492.85,79.0514
1495.9,79.0514
1498.95,79.0514
1502.01,316.206
1505.06,316.206
1508.12,553.36
1511.17,790.514
1514.23,1027.67
1517.28,1264.82
1520.34,1501.98
1523.39,1739.13
1526.45,1976.28
1529.5,2213.44
1532.56,2687.75
1535.61,2924.9
1538.67,3399.21
1541.72,3636.36
1544.77,3873.52
1547.83,4110.67
1550.88,4584.98
1553.94,4822.13
1556.99,4822.13
1560.05,4822.13
1563.1,4822.13
1566.16,4822.13
1569.21,4822.13
1572.27,4584.98
1575.32,4347.83
1578.38,4110.67
1581.43,3873.52
1584.49,3636.36
1587.54,3399.21
1590.59,3162.06
1593.65,3162.06
1596.7,2924.9
1599.76,2924.9
1602.81,2924.9
1605.87,3162.06
1608.92,3162.06
1611.98,3399.21
1615.03,3399.21
1618.09,3399.21
1621.14,3399.21
1624.2,3399.21
1627.25,3399.21
1630.31,3399.21
1633.36,2924.9
1636.41,2687.75
1639.47,2450.59
1642.52,2213.44
1645.58,1976.28
1648.63,1739.13
1651.69,1501.98
1654.74,1264.82
1657.8,1264.82
1660.85,1027.67
1663.91,1027.67
1666.96,1027.67
1670.02,1027.67
1673.07,1027.67
1676.13,1264.82
1679.18,1264.82
1682.23,1264.82
1685.29,1501.98
1688.34,1501.98
1691.4,1501.98
1694.45,1501.98
1697.51,1739.13
1700.56,1739.13
1703.62,1739.13
1706.67,1739.13
1709.73,1739.13
1712.78,1739.13
1715.84,1739.13
1718.89,1501.98
1721.95,1501.98
1725,1501.98
1728.05,1264.82
1731.11,1027.67
1734.16,1027.67
1737.22,790.514
1740.27,553.36
1743.33,553.36
1746.38,316.206
1749.44,316.206
1752.49,79.0514
1755.55,79.0514
1758.6,79.0514
1761.66,79.0514
1764.71,79.0514
1767.77,79.0514
1770.82,79.0514
1773.87,79.0514
1776.93,79.0514
1779.98,316.206
1783.04,316.206
1786.09,553.36
1789.15,553.36
1792.2,790.514
1795.26,1027.67
1798.31,1264.82
1801.37,1739.13
1804.42,2213.44
1807.48,2450.59
1810.53,2924.9
1813.59,3162.06
1816.64,3399.21
1819.69,3636.36
1822.75,3873.52
1825.8,3873.52
1828.86,3873.52
1831.91,4110.67
1834.97,3873.52
1838.02,3873.52
1841.08,3636.36
1844.13,3399.21
1847.19,3162.06
1850.24,2924.9
1853.3,2687.75
1856.35,2450.59
1859.41,2450.59
1862.46,2213.44
1865.51,1976.28
1868.57,1976.28
1871.62,1739.13
1874.68,1739.13
1877.73,1501.98
1880.79,1501.98
1883.84,1264.82
1886.9,1027.67
1889.95,1027.67
1893.01,790.514
1896.06,553.36
1899.12,553.36
1902.17,316.206
1905.23,316.206
1908.28,79.0514
1911.33,79.0514
1914.39,79.0514
1917.44,79.0514
1920.5,79.0514
1923.55,79.0514
1926.61,79.0514
1929.66,79.0514
1932.72,79.0514
1935.77,79.0514
1938.83,79.0514
1941.88,79.0514
1944.94,79.0514
1947.99,79.0514
1951.05,79.0514
1954.1,79.0514
1957.15,79.0514
1960.21,79.0514
1963.26,79.0514
1966.32,79.0514
1969.37,79.0514
1972.43,79.0514
1975.48,79.0514
1978.54,79.0514
1981.59,79.0514
1984.65,79.0514
1987.7,79.0514
1990.76,79.0514
1993.81,79.0514
1996.86,79.0514
1999.92,79.0514
2002.97,79.0514
2006.03,79.0514
2009.08,79.0514
2012.14,79.0514
2015.19,79.0514
2018.25,79.0514
2021.3,79.0514
2024.36,79.0514
2027.41,79.0514
2030.47,79.0514
2033.52,79.0514
2036.58,79.0514
2039.63,79.0514
2042.68,79.0514
2045.74,79.0514
2048.79,79.0514
2051.85,79.0514
2054.9,79.0514
2057.96,79.0514
2061.01,79.0514
2064.07,79.0514
2067.12,79.0514
2070.18,79.0514
2073.23,79.0514
2076.29,79.0514
2079.34,79.0514
2082.4,79.0514
2085.45,79.0514
2088.5,79.0514
2091.56,79.0514
2094.61,79.0514
2097.67,316.206
2100.72,316.206
2103.78,79.0514
2106.83,79.0514
2109.89,79.0514
2112.94,79.0514
2116,79.0514
2119.05,79.0514
2122.11,79.0514
2125.16,79.0514
2128.22,79.0514
2131.27,79.0514
2134.32,79.0514
2137.38,79.0514
2140.43,79.0514
2143.49,79.0514
2146.54,79.0514
2149.6,79.0514
2152.65,79.0514
2155.71,79.0514
2158.76,79.0514
2161.82,79.0514
2164.87,79.0514
2167.93,79.0514
2170.98,79.0514
2174.04,79.0514
2177.09,79.0514
2180.14,79.0514
2183.2,79.0514
2186.25,79.0514
2189.31,79.0514
2192.36,79.0514
2195.42,79.0514
2198.47,79.0514
2201.53,79.0514
2204.58,79.0514
2207.64,316.206
2210.69,79.0514
2213.75,79.0514
2216.8,79.0514
2219.86,79.0514
2222.91,79.0514
2225.96,79.0514
2229.02,316.206
2232.07,316.206
2235.13,79.0514
2238.18,79.0514
2241.24,79.0514
2244.29,79.0514
2247.35,79.0514
2250.4,79.0514
2253.46,79.0514
2256.51,79.0514
2259.57,79.0514
2262.62,79.0514
2265.68,79.0514
2268.73,79.0514
2271.78,79.0514
2274.84,79.0514
2277.89,79.0514
2280.95,79.0514
2284,79.0514
2287.06,79.0514
2290.11,79.0514
